Time,Fc5,Fc3,Fc1,Fcz,Fc2,Fc4,Fc6,C5,C3,C1,Cz,C2,C4,C6,Cp5,Cp3,Cp1,Cpz,Cp2,Cp4,Cp6,Fp1,Fpz,Fp2,Af7,Af3,Afz,Af4,Af8,F7,F5,F3,F1,Fz,F2,F4,F6,F8,Ft7,Ft8,T7,T8,T9,T10,Tp7,Tp8,P7,P5,P3,P1,Pz,P2,P4,P6,P8,Po7,Po3,Poz,Po4,Po8,O1,Oz,O2,Iz,Target
0.0,-57,-13,-15,-12,-13,-8,-40,-54,-12,-14,-29,-15,-15,-25,-10,-14,-21,-25,-23,-34,-24,-110,-89,-131,-54,-55,-51,-70,-106,-20,-33,-28,-31,-29,-31,-27,-57,-88,-18,-38,2,-11,7,-46,-2,-44,-7,-16,-43,-42,-44,-45,-44,-52,-48,-38,-42,-68,-76,-103,-51,-56,-124,-28,REST
0.00625,-49,-11,-10,-12,-19,-24,-58,-51,-19,-23,-41,-31,-34,-46,-23,-30,-40,-41,-40,-53,-40,-95,-80,-130,-46,-48,-44,-70,-110,-17,-14,-32,-27,-26,-32,-26,-67,-86,-6,-52,13,-35,-7,-10,-25,-60,-31,-42,-67,-64,-66,-62,-62,-60,-55,-55,-63,-82,-87,-99,-59,-70,-149,-40,REST
0.0125,-55,-17,-16,-19,-24,-29,-66,-61,-30,-36,-53,-41,-48,-56,-50,-47,-56,-59,-58,-70,-54,-110,-81,-129,-52,-54,-50,-76,-109,-27,-21,-44,-40,-34,-43,-40,-74,-84,-28,-63,-40,-61,-27,3,-41,-63,-43,-54,-74,-79,-79,-76,-70,-66,-54,-63,-72,-91,-92,-91,-67,-77,-153,-37,REST
0.01875,-73,-42,-40,-37,-37,-40,-71,-78,-53,-53,-65,-55,-58,-67,-50,-60,-68,-69,-68,-82,-65,-122,-93,-140,-65,-67,-63,-86,-117,-35,-46,-52,-54,-51,-54,-51,-72,-97,-43,-60,-35,-34,-18,-18,-16,-65,-13,-47,-81,-88,-88,-86,-83,-77,-65,-52,-66,-100,-105,-105,-67,-72,-148,-26,REST
0.025,-87,-53,-52,-51,-45,-43,-71,-87,-65,-64,-73,-66,-64,-70,-48,-71,-78,-78,-76,-91,-73,-99,-83,-131,-57,-59,-60,-78,-103,-42,-31,-55,-49,-53,-55,-50,-70,-101,-43,-67,-8,-77,-22,-16,-39,-73,-43,-65,-97,-103,-100,-100,-99,-92,-75,-82,-90,-117,-119,-118,-75,-82,-161,-35,REST
0.03125,-76,-40,-48,-55,-60,-61,-91,-83,-59,-62,-81,-77,-77,-90,-67,-72,-84,-83,-86,-100,-84,-119,-94,-140,-73,-73,-70,-88,-116,-56,-21,-60,-51,-61,-68,-62,-88,-112,-58,-78,-42,-89,-60,-13,-66,-63,-74,-74,-96,-102,-99,-97,-92,-84,-59,-95,-94,-110,-108,-100,-97,-95,-175,-54,REST
0.0375,-73,-29,-47,-66,-67,-71,-90,-77,-46,-60,-89,-79,-81,-92,-54,-61,-78,-82,-89,-99,-83,-102,-77,-124,-45,-49,-59,-80,-100,-16,-8,-51,-41,-51,-59,-53,-80,-110,-25,-71,-46,-64,-28,-12,-37,-71,-44,-56,-83,-96,-95,-96,-92,-89,-67,-69,-80,-105,-114,-115,-98,-92,-176,-58,REST
0.04375,-54,-18,-34,-55,-52,-62,-84,-72,-42,-55,-77,-70,-81,-92,-53,-63,-76,-77,-89,-103,-90,-102,-78,-130,-37,-36,-52,-77,-109,-17,6,-46,-33,-41,-53,-49,-80,-109,-40,-77,-34,-80,-31,-25,-50,-89,-60,-71,-95,-105,-102,-107,-104,-105,-91,-80,-91,-115,-123,-125,-89,-90,-173,-53,REST
0.05,-74,-35,-41,-55,-63,-74,-100,-94,-65,-67,-89,-83,-92,-101,-80,-83,-89,-88,-100,-116,-102,-134,-98,-148,-88,-86,-70,-95,-132,-47,-25,-62,-53,-58,-72,-71,-98,-119,-41,-83,-36,-68,-34,-32,-64,-110,-73,-81,-105,-108,-103,-106,-100,-100,-88,-93,-99,-111,-115,-112,-87,-90,-158,-49,REST
0.05625,-89,-49,-52,-67,-71,-74,-95,-99,-74,-73,-90,-74,-81,-81,-70,-82,-88,-85,-87,-102,-81,-119,-84,-122,-68,-70,-53,-73,-109,-27,-17,-46,-38,-42,-51,-46,-70,-93,-31,-56,-26,-26,-35,-32,-54,-80,-69,-76,-94,-93,-88,-87,-82,-76,-59,-88,-90,-100,-98,-95,-88,-86,-142,-45,REST
0.0625,-63,-22,-26,-35,-37,-39,-64,-79,-54,-49,-59,-50,-51,-53,-69,-68,-67,-65,-63,-77,-55,-113,-84,-124,-60,-58,-36,-54,-96,-29,-8,-23,-20,-26,-33,-29,-51,-82,-21,-45,-13,-40,-57,-37,-57,-58,-77,-79,-92,-93,-84,-84,-80,-70,-56,-101,-102,-107,-101,-100,-91,-84,-136,-52,REST
0.06875,-63,-29,-32,-41,-48,-51,-70,-87,-60,-61,-78,-74,-66,-67,-87,-87,-86,-89,-86,-97,-72,-135,-104,-143,-84,-86,-68,-79,-110,-51,-41,-52,-55,-61,-68,-63,-76,-111,-53,-72,-71,-78,-59,-12,-86,-88,-102,-107,-120,-125,-116,-110,-106,-98,-81,-127,-128,-127,-122,-120,-105,-89,-139,-56,REST
0.075,-108,-65,-67,-78,-83,-83,-100,-116,-82,-89,-105,-100,-99,-102,-95,-102,-105,-105,-103,-116,-97,-154,-110,-140,-99,-100,-79,-87,-110,-54,-61,-64,-60,-66,-71,-67,-84,-119,-53,-86,-40,-89,-43,-13,-72,-98,-74,-89,-106,-115,-105,-109,-103,-101,-83,-103,-107,-118,-121,-123,-114,-98,-155,-68,REST
0.08125,-78,-35,-37,-48,-55,-62,-92,-73,-47,-53,-68,-70,-79,-97,-59,-67,-71,-74,-82,-100,-90,-129,-88,-124,-80,-82,-55,-72,-109,-37,-42,-39,-29,-39,-46,-46,-73,-112,-37,-80,-40,-67,-55,-24,-53,-102,-67,-69,-87,-98,-90,-95,-90,-91,-79,-91,-100,-111,-109,-117,-107,-102,-173,-68,REST
0.0875,-79,-32,-30,-37,-42,-45,-80,-86,-45,-50,-65,-63,-64,-78,-66,-68,-68,-76,-78,-90,-77,-122,-88,-124,-78,-79,-47,-62,-107,-41,-45,-31,-27,-32,-36,-34,-58,-105,-49,-67,-35,-55,-40,-18,-60,-91,-78,-76,-90,-101,-95,-89,-78,-76,-62,-99,-107,-114,-99,-105,-97,-98,-173,-58,REST
0.09375,-89,-45,-44,-39,-35,-29,-65,-101,-62,-63,-69,-63,-54,-71,-73,-74,-77,-82,-75,-84,-69,-133,-103,-134,-95,-96,-59,-63,-109,-55,-77,-42,-50,-48,-42,-40,-48,-92,-63,-52,-48,-39,-34,-23,-67,-78,-73,-72,-91,-95,-90,-82,-70,-67,-58,-89,-91,-103,-90,-96,-92,-90,-161,-52,REST
0.1,-104,-59,-53,-46,-40,-29,-56,-102,-63,-61,-64,-68,-45,-55,-67,-70,-72,-69,-63,-71,-54,-139,-99,-132,-95,-97,-62,-65,-103,-65,-77,-44,-54,-53,-51,-48,-53,-86,-69,-44,-50,-30,-34,-28,-57,-66,-63,-64,-82,-89,-88,-78,-69,-65,-58,-80,-87,-99,-89,-100,-85,-82,-144,-46,REST
0.10625,-107,-55,-57,-52,-56,-51,-71,-105,-62,-65,-78,-79,-61,-65,-67,-71,-76,-78,-76,-84,-65,-124,-95,-131,-80,-83,-60,-71,-101,-56,-67,-54,-45,-46,-54,-50,-68,-98,-56,-58,-51,-65,-51,-22,-65,-76,-58,-53,-71,-86,-87,-83,-78,-76,-65,-65,-72,-95,-92,-103,-78,-80,-140,-47,REST
0.1125,-79,-24,-30,-30,-40,-40,-69,-73,-29,-36,-56,-60,-48,-58,-33,-37,-46,-54,-55,-68,-52,-111,-69,-99,-70,-71,-36,-50,-84,-45,-50,-31,-21,-23,-31,-27,-50,-90,-39,-45,-35,-37,-39,-45,-44,-65,-32,-25,-44,-54,-59,-59,-53,-58,-50,-36,-44,-68,-74,-84,-55,-66,-136,-37,REST
0.11875,-76,-17,-16,-15,-22,-24,-58,-72,-20,-23,-37,-45,-37,-50,-41,-33,-33,-39,-41,-56,-49,-113,-71,-107,-79,-79,-40,-50,-94,-52,-60,-27,-27,-26,-31,-30,-50,-97,-54,-53,-30,-69,-49,-10,-52,-64,-37,-30,-45,-54,-54,-52,-48,-53,-45,-42,-48,-64,-73,-87,-38,-55,-133,-30,REST
0.125,-88,-29,-26,-23,-25,-25,-66,-82,-29,-33,-42,-45,-42,-67,-48,-40,-43,-48,-45,-59,-53,-129,-92,-121,-93,-93,-58,-64,-102,-65,-78,-49,-46,-43,-47,-42,-58,-113,-73,-62,-50,-67,-62,-14,-78,-64,-59,-46,-56,-65,-60,-60,-53,-59,-49,-63,-63,-70,-77,-97,-50,-64,-138,-49,REST
0.13125,-95,-31,-37,-39,-35,-29,-68,-76,-27,-36,-49,-46,-37,-60,-39,-31,-39,-40,-39,-50,-43,-131,-87,-118,-90,-91,-56,-62,-103,-67,-70,-40,-43,-41,-42,-37,-48,-108,-64,-45,-50,-33,-43,-16,-43,-48,-12,-4,-13,-20,-17,-22,-16,-25,-22,-13,-13,-20,-34,-57,-44,-54,-126,-57,REST
0.1375,-70,-20,-18,-18,-10,-3,-37,-37,-1,-9,-17,-14,-2,-20,10,7,-4,-4,3,-11,-6,-101,-67,-105,-60,-60,-35,-48,-88,-20,-37,-22,-22,-18,-20,-19,-35,-94,2,-21,-7,-1,10,-11,20,-29,41,36,25,18,22,18,19,5,1,36,28,22,4,-16,-3,-5,-80,-16,REST
0.14375,-45,-12,2,8,15,16,-22,-39,6,12,10,9,30,7,24,21,17,21,31,18,22,-91,-55,-96,-45,-48,-18,-37,-80,6,-20,-11,1,2,-6,-4,-30,-74,6,-16,34,-16,54,1,33,-12,45,43,35,33,36,36,34,20,20,56,40,42,21,5,51,53,-19,57,REST
0.15,-42,6,12,9,14,13,-21,-34,5,14,5,-2,20,-1,22,20,17,16,21,7,13,-106,-52,-87,-54,-54,-14,-32,-74,-3,-14,1,13,9,-2,1,-24,-59,8,-17,39,-17,49,2,43,-16,65,59,50,41,40,33,28,12,12,82,60,50,15,-5,88,80,14,108,REST
0.15625,-24,30,35,27,27,21,-22,1,35,38,24,13,16,-11,55,50,40,35,26,8,4,-80,-39,-80,-23,-24,2,-24,-70,9,11,11,32,26,14,16,-16,-50,32,-12,64,-1,54,1,58,-24,82,72,57,44,41,27,18,-2,-8,77,57,44,0,-32,96,72,0,112,REST
0.1625,1,45,47,39,35,28,-17,16,47,41,23,12,21,-6,53,48,37,29,21,6,1,-61,-41,-84,-14,-16,0,-24,-76,15,10,7,25,17,5,7,-22,-51,27,-15,46,-18,27,-2,30,-29,47,45,35,25,25,15,11,-4,-4,39,26,26,-3,-22,70,51,-23,87,REST
0.16875,-33,15,16,15,6,5,-35,-32,12,11,-7,-11,-3,-26,3,10,4,1,-3,-17,-20,-95,-74,-118,-57,-58,-26,-56,-109,-27,-40,-18,-8,-8,-22,-22,-40,-71,-28,-32,-20,-18,-18,-44,-21,-42,-6,-3,-4,-13,-7,-14,-20,-31,-27,-12,-20,-17,-39,-60,18,17,-43,23,REST
0.175,-77,-18,-12,-2,-10,-7,-44,-69,-15,-17,-30,-33,-29,-49,-37,-26,-27,-29,-32,-55,-54,-124,-94,-131,-81,-84,-45,-71,-115,-60,-59,-43,-29,-29,-40,-37,-53,-83,-52,-53,-36,-74,-49,-24,-52,-82,-44,-43,-45,-57,-49,-59,-68,-80,-77,-51,-64,-68,-91,-119,-44,-42,-102,-65,REST
0.18125,-81,-26,-29,-25,-31,-27,-68,-71,-25,-27,-42,-49,-46,-73,-39,-33,-33,-35,-45,-68,-70,-140,-107,-152,-99,-98,-59,-84,-127,-59,-61,-49,-33,-39,-52,-49,-68,-91,-46,-58,-29,-56,-56,-18,-54,-64,-41,-31,-31,-44,-36,-46,-53,-59,-51,-40,-51,-49,-71,-86,-67,-65,-129,-93,REST
0.1875,-69,-18,-21,-29,-35,-36,-65,-53,-12,-17,-39,-45,-45,-57,-29,-21,-25,-30,-39,-58,-55,-137,-93,-137,-92,-91,-55,-79,-115,-45,-66,-51,-30,-35,-51,-51,-71,-87,-30,-53,-25,-24,-52,-28,-41,-68,-29,-32,-35,-51,-49,-59,-63,-69,-69,-47,-54,-62,-86,-107,-62,-65,-131,-91,REST
0.19375,-72,-34,-32,-37,-48,-49,-71,-73,-31,-37,-59,-63,-62,-63,-47,-44,-49,-55,-61,-76,-65,-121,-87,-128,-77,-79,-56,-79,-113,-47,-63,-62,-41,-42,-57,-58,-75,-91,-50,-60,-49,-51,-35,-32,-47,-76,-44,-38,-47,-58,-58,-65,-65,-70,-64,-46,-51,-58,-76,-88,-50,-55,-111,-70,REST
0.2,-92,-47,-40,-49,-53,-54,-74,-86,-36,-39,-52,-59,-68,-61,-41,-38,-44,-51,-56,-72,-58,-121,-105,-150,-74,-77,-70,-95,-135,-52,-77,-64,-50,-51,-65,-68,-87,-98,-55,-63,-33,-51,-29,-26,-32,-62,-26,-15,-26,-38,-40,-50,-52,-58,-51,-17,-23,-41,-66,-87,-35,-41,-98,-59,REST
0.20625,-91,-42,-35,-48,-48,-55,-81,-71,-25,-33,-46,-53,-62,-67,-26,-29,-35,-42,-49,-66,-60,-135,-120,-164,-98,-98,-73,-101,-140,-68,-85,-65,-48,-49,-61,-62,-92,-96,-67,-69,-22,-62,-29,-18,-33,-70,-17,-14,-22,-38,-39,-49,-54,-65,-62,-12,-23,-40,-71,-93,-25,-36,-99,-62,REST
0.2125,-91,-36,-39,-41,-45,-46,-82,-69,-30,-38,-52,-53,-54,-70,-34,-31,-38,-41,-46,-60,-61,-160,-120,-161,-112,-114,-78,-96,-128,-74,-80,-65,-57,-54,-60,-63,-85,-88,-46,-68,-35,-76,-31,-11,-42,-62,-23,-13,-16,-28,-26,-39,-43,-54,-50,-8,-13,-24,-58,-79,-18,-32,-95,-55,REST
0.21875,-97,-54,-49,-41,-42,-34,-73,-66,-27,-32,-42,-40,-36,-54,-26,-15,-23,-26,-27,-45,-41,-183,-131,-167,-136,-135,-83,-99,-129,-86,-105,-71,-73,-62,-64,-71,-80,-84,-59,-60,-43,-46,-48,-10,-34,-45,-13,-4,-5,-13,-10,-22,-25,-37,-31,-1,-8,-15,-42,-65,-9,-25,-80,-40,REST
0.225,-120,-70,-58,-47,-41,-31,-64,-94,-40,-38,-40,-42,-26,-39,-39,-30,-29,-27,-19,-34,-24,-174,-129,-164,-134,-136,-84,-99,-119,-98,-115,-81,-77,-65,-68,-71,-75,-79,-88,-45,-50,-28,-68,-34,-56,-48,-36,-35,-33,-42,-30,-32,-30,-38,-29,-36,-46,-46,-50,-67,-23,-39,-79,-53,REST
0.23125,-130,-79,-61,-50,-44,-40,-66,-114,-64,-55,-48,-47,-33,-45,-69,-64,-54,-47,-33,-45,-35,-163,-119,-156,-123,-126,-82,-99,-116,-97,-96,-75,-66,-58,-67,-69,-81,-79,-77,-50,-44,-35,-73,-21,-72,-55,-61,-56,-53,-60,-42,-39,-32,-37,-33,-65,-68,-62,-55,-60,-62,-68,-93,-86,REST
0.2375,-97,-47,-31,-22,-23,-24,-54,-82,-44,-30,-24,-20,-21,-32,-52,-48,-37,-28,-13,-29,-18,-124,-90,-137,-92,-93,-43,-68,-98,-67,-64,-34,-18,-15,-25,-26,-50,-48,-35,-31,-48,-7,-65,-2,-50,-39,-41,-33,-32,-38,-24,-25,-17,-21,-19,-53,-53,-52,-43,-44,-79,-76,-91,-91,REST
0.24375,-67,-15,-1,3,-4,-5,-42,-64,-19,-16,-21,-17,-18,-34,-27,-34,-30,-31,-18,-39,-29,-103,-79,-126,-68,-68,-31,-63,-102,-67,-66,-36,-19,-15,-26,-30,-61,-58,-55,-51,-53,-55,-47,-15,-39,-59,-33,-41,-44,-58,-50,-58,-48,-54,-48,-58,-66,-76,-79,-86,-78,-82,-105,-87,REST
0.25,-94,-37,-22,-16,-23,-23,-64,-88,-35,-31,-37,-30,-33,-55,-53,-46,-42,-43,-34,-54,-46,-112,-89,-135,-86,-83,-48,-82,-119,-58,-68,-48,-34,-31,-43,-46,-75,-81,-48,-63,-20,-43,-29,-23,-27,-57,-31,-41,-42,-54,-43,-50,-41,-50,-44,-52,-60,-64,-68,-73,-67,-74,-106,-68,REST
0.25625,-83,-33,-24,-21,-27,-25,-63,-77,-27,-29,-37,-37,-31,-45,-46,-46,-39,-41,-33,-49,-43,-135,-97,-139,-90,-90,-62,-90,-121,-56,-78,-64,-48,-45,-58,-58,-81,-92,-47,-62,-22,-46,-46,-25,-50,-63,-51,-53,-60,-66,-51,-51,-45,-51,-39,-64,-72,-70,-60,-52,-62,-59,-87,-46,REST
0.2625,-104,-55,-50,-45,-47,-49,-78,-99,-54,-53,-56,-63,-47,-62,-64,-67,-59,-60,-50,-64,-54,-153,-114,-148,-99,-99,-76,-96,-124,-84,-109,-80,-65,-61,-71,-74,-93,-100,-75,-69,-63,-81,-62,-25,-61,-52,-57,-60,-67,-70,-54,-46,-40,-39,-16,-64,-73,-63,-42,-28,-63,-46,-62,-24,REST
0.26875,-121,-66,-54,-49,-49,-52,-87,-106,-58,-49,-48,-61,-46,-65,-64,-66,-52,-51,-41,-53,-44,-143,-116,-159,-110,-109,-76,-105,-131,-93,-114,-76,-56,-55,-68,-72,-95,-101,-77,-67,-55,-63,-55,-54,-46,-47,-43,-45,-46,-52,-37,-29,-21,-24,-5,-50,-61,-50,-23,-18,-58,-33,-40,-13,REST
0.275,-101,-43,-32,-25,-35,-40,-69,-82,-33,-26,-27,-39,-32,-44,-43,-41,-34,-30,-25,-33,-30,-149,-108,-155,-111,-109,-65,-98,-123,-90,-100,-65,-41,-39,-54,-55,-76,-86,-70,-47,-47,-12,-49,-29,-51,-53,-40,-36,-35,-41,-32,-25,-15,-26,-21,-40,-50,-45,-27,-34,-46,-30,-43,-20,REST
0.28125,-106,-44,-34,-26,-39,-43,-63,-93,-34,-32,-33,-49,-41,-42,-48,-39,-37,-37,-31,-35,-30,-159,-112,-154,-118,-115,-70,-100,-131,-93,-116,-66,-46,-46,-59,-61,-75,-81,-69,-50,-45,-32,-40,-12,-51,-46,-26,-22,-21,-31,-24,-19,-11,-18,-16,-18,-24,-31,-16,-27,-29,-22,-54,-16,REST
0.2875,-94,-35,-31,-30,-34,-42,-62,-66,-20,-22,-34,-53,-40,-39,-26,-20,-25,-34,-27,-34,-25,-115,-105,-149,-90,-91,-66,-98,-129,-70,-100,-61,-43,-46,-58,-58,-81,-79,-36,-58,-35,-67,-62,-18,-48,-44,-23,-18,-18,-41,-34,-37,-31,-34,-29,-30,-37,-58,-44,-58,-22,-25,-69,-22,REST
0.29375,-92,-45,-45,-48,-50,-58,-83,-83,-39,-43,-54,-72,-58,-69,-46,-43,-49,-59,-54,-64,-56,-157,-128,-164,-113,-112,-90,-119,-144,-93,-122,-87,-69,-68,-78,-81,-109,-103,-82,-77,-71,-67,-63,-25,-60,-66,-45,-47,-47,-69,-65,-72,-66,-67,-62,-54,-61,-85,-81,-96,-44,-56,-102,-48,REST
0.3,-125,-64,-56,-45,-50,-55,-92,-116,-52,-50,-54,-64,-53,-66,-56,-48,-49,-54,-51,-61,-52,-170,-127,-167,-122,-121,-81,-110,-144,-97,-115,-71,-59,-53,-63,-68,-91,-97,-86,-67,-58,-44,-48,-34,-43,-53,-20,-31,-35,-48,-39,-48,-43,-43,-35,-36,-42,-59,-58,-68,-52,-69,-118,-45,REST
0.30625,-101,-41,-36,-20,-18,-19,-59,-83,-28,-26,-28,-23,-18,-36,-24,-23,-24,-27,-21,-28,-24,-117,-89,-135,-81,-80,-40,-68,-110,-62,-89,-35,-23,-17,-22,-24,-43,-61,-45,-45,-37,-54,-31,-23,-30,-33,-4,-3,-11,-21,-15,-25,-21,-29,-20,-2,-12,-32,-37,-50,-29,-44,-91,-7,REST
0.3125,-73,-10,-8,6,10,11,-33,-63,-5,-7,-14,-6,1,-29,-7,-8,-10,-17,-7,-17,-18,-108,-73,-114,-68,-66,-20,-46,-86,-63,-92,-20,-10,-4,-6,-11,-27,-49,-56,-38,-40,-42,-32,-17,-23,-32,0,6,1,-8,-4,-11,-10,-21,-18,15,3,-9,-21,-32,10,2,-34,43,REST
0.31875,-88,-14,-9,7,14,11,-34,-76,-14,-14,-21,-8,-4,-30,-24,-19,-15,-24,-14,-25,-23,-119,-89,-121,-96,-93,-33,-54,-88,-91,-116,-34,-27,-19,-21,-27,-40,-65,-72,-45,-36,-43,-45,-30,-33,-48,-16,-13,-18,-30,-26,-30,-27,-38,-38,-13,-21,-33,-42,-52,10,6,-15,24,REST
0.325,-106,-39,-32,-16,-12,-14,-52,-85,-28,-34,-41,-38,-26,-44,-29,-26,-30,-40,-32,-39,-35,-117,-97,-138,-97,-99,-52,-74,-108,-87,-118,-56,-43,-34,-38,-42,-59,-82,-63,-49,-30,-45,-49,-26,-44,-51,-18,-11,-13,-30,-27,-32,-33,-44,-39,-11,-16,-28,-43,-59,-5,-8,-21,-1,REST
0.33125,-93,-33,-35,-29,-30,-30,-61,-72,-15,-31,-44,-54,-39,-53,-18,-17,-30,-45,-43,-51,-45,-136,-91,-137,-102,-102,-63,-84,-109,-83,-119,-60,-44,-43,-48,-50,-64,-83,-77,-51,-48,-45,-43,-31,-30,-59,-3,2,-3,-26,-25,-35,-41,-56,-57,0,-7,-29,-56,-92,-14,-23,-42,-4,REST
0.3375,-84,-15,-23,-25,-27,-25,-57,-46,1,-22,-43,-50,-39,-44,1,-5,-19,-42,-41,-49,-40,-121,-82,-133,-80,-80,-44,-68,-101,-52,-89,-40,-17,-20,-29,-26,-48,-73,-20,-37,-6,-4,-8,-31,-11,-55,16,20,9,-14,-14,-23,-27,-42,-46,14,6,-16,-42,-74,-8,-20,-46,12,REST
0.34375,-49,-4,-2,6,-1,-2,-34,-37,8,-6,-22,-28,-16,-19,17,8,-5,-24,-18,-29,-20,-77,-58,-97,-48,-49,-18,-42,-73,-34,-61,-21,-1,-1,-9,-8,-29,-62,-5,-19,-2,3,-12,-22,-3,-48,30,17,4,-14,-11,-14,-15,-29,-31,11,-2,-20,-33,-60,5,-7,-35,34,REST
0.35,-55,-10,-8,12,7,1,-32,-62,-6,-14,-26,-22,-10,-20,-4,-7,-16,-28,-19,-26,-18,-80,-47,-82,-41,-43,-12,-32,-52,-36,-52,-11,1,1,-3,-5,-21,-59,-24,-22,-16,-26,-3,-15,1,-35,11,2,-5,-17,-12,-15,-14,-25,-19,-6,-15,-27,-39,-62,2,-8,-33,34,REST
0.35625,-56,-1,4,14,12,-1,-32,-63,-1,-2,-13,-7,-8,-21,-11,-3,-5,-14,-11,-17,-17,-56,-33,-77,-33,-32,2,-24,-47,-15,-39,-5,17,13,4,5,-22,-59,-8,-28,-10,-70,17,-7,-18,-30,-10,-3,-3,-13,-4,-17,-18,-27,-14,-8,-16,-28,-44,-64,-11,-18,-46,21,REST
0.3625,-45,9,14,18,18,-1,-38,-51,10,12,2,-8,-10,-32,-3,7,7,-4,-3,-15,-17,-46,-26,-73,-50,-49,-4,-30,-56,-17,-59,-11,6,4,-2,-4,-28,-59,-18,-26,-17,-44,14,-27,-10,-24,-5,-2,-9,-15,-4,-16,-14,-22,-12,-13,-24,-30,-40,-50,-20,-24,-50,16,REST
0.36875,-63,-16,-15,-4,5,-5,-36,-70,-10,-12,-20,-32,-15,-30,-15,-12,-12,-22,-16,-27,-21,-93,-54,-91,-72,-72,-34,-44,-71,-33,-91,-26,-22,-25,-24,-24,-34,-65,-32,-27,-17,-37,9,-5,-37,-37,-18,-17,-24,-30,-24,-31,-29,-33,-28,-24,-33,-42,-45,-54,-23,-28,-49,22,REST
0.375,-64,-19,-17,-4,-3,-9,-41,-70,-13,-17,-22,-26,-14,-27,-17,-16,-18,-25,-18,-26,-22,-81,-52,-82,-51,-52,-33,-44,-60,-18,-72,-25,-9,-14,-18,-14,-32,-59,-3,-28,-6,-30,15,4,-19,-37,-11,-17,-23,-24,-16,-18,-17,-24,-19,-16,-26,-27,-27,-38,-22,-22,-37,34,REST
0.38125,-35,6,11,24,24,21,-19,-44,15,14,11,2,18,1,0,7,8,1,11,2,2,-37,-18,-56,-9,-11,-2,-15,-28,21,-18,13,22,17,15,17,-3,-23,24,-5,41,-5,44,-10,22,-23,24,19,8,7,14,9,7,-1,1,19,4,-2,-4,-14,-2,7,-10,54,REST
0.3875,4,51,46,49,51,49,7,-8,51,42,36,24,32,12,27,25,27,16,23,5,2,-7,7,-33,12,12,26,15,-9,45,1,42,51,42,37,42,18,-24,40,4,41,18,30,-15,13,-33,24,16,5,1,7,-5,-7,-19,-16,16,-4,-15,-26,-40,14,20,-6,51,REST
0.39375,1,46,41,44,48,44,6,-28,33,31,33,18,16,-3,10,7,14,7,10,-12,-14,-18,-6,-48,-10,-11,9,-2,-29,11,-39,14,20,14,15,17,1,-41,17,-16,8,-33,25,-15,8,-32,20,3,-8,-14,-6,-13,-13,-18,-12,20,-2,-16,-26,-30,22,17,-14,42,REST
0.4,-48,-3,-8,-6,8,11,-22,-65,1,-4,-9,-16,-5,-15,-5,-10,-7,-14,-11,-22,-15,-71,-41,-82,-44,-44,-31,-38,-59,-5,-72,-17,-18,-27,-23,-18,-23,-67,-10,-23,1,-25,35,-8,10,-14,30,10,-6,-11,-1,-5,-3,-3,11,33,13,-3,-10,-10,26,17,-15,46,REST
0.40625,-62,-12,-17,-25,-7,6,-14,-67,-4,-6,-13,-21,-4,5,-3,-7,-5,-14,-6,-16,-2,-81,-52,-90,-62,-61,-39,-43,-59,-23,-78,-26,-20,-30,-29,-19,-16,-63,-32,-5,-4,3,14,-8,-5,-20,15,3,-15,-21,-11,-15,-15,-15,-7,25,-1,-20,-27,-37,25,18,-18,50,REST
0.4125,-58,-8,-18,-18,-8,3,-14,-71,-14,-16,-21,-21,-13,-5,-21,-30,-23,-30,-20,-32,-17,-59,-40,-73,-37,-39,-23,-27,-39,-22,-68,-17,-11,-16,-16,-9,-5,-50,-29,-4,-19,-16,17,-1,-12,-22,-1,-9,-24,-31,-16,-15,-7,-10,-1,6,-12,-26,-18,-18,11,11,-17,39,REST
0.41875,-56,-12,-13,-1,15,18,1,-70,-11,-10,-13,5,12,6,-6,-21,-13,-16,2,-6,6,-53,-26,-50,-35,-34,-11,-6,-13,-9,-64,-4,-8,-10,-4,-1,10,-31,4,7,6,-4,24,-2,7,3,22,7,-12,-22,-7,3,8,8,16,24,0,-17,-6,-8,7,13,-1,34,REST
0.425,-55,-22,-19,-6,18,22,2,-69,-14,-13,-10,7,17,13,-4,-20,-16,-18,2,-5,10,-50,-31,-73,-52,-52,-21,-16,-41,-17,-68,-16,-15,-16,-8,-5,-1,-50,-14,-3,1,-8,11,-29,-17,-12,22,3,-22,-30,-16,-9,-4,-5,-2,23,-5,-25,-24,-40,6,8,-5,30,REST
0.43125,-68,-31,-35,-21,1,9,-12,-71,-27,-34,-33,-13,5,1,-10,-32,-35,-40,-17,-18,-2,-71,-46,-89,-67,-67,-40,-40,-61,-38,-91,-39,-42,-44,-36,-33,-24,-66,-44,-15,-35,-7,-5,-1,-16,-11,7,-18,-43,-43,-30,-21,-14,-12,-1,1,-27,-39,-37,-52,-3,-5,-20,21,REST
0.4375,-101,-69,-78,-65,-38,-22,-29,-114,-65,-73,-76,-45,-15,-4,-51,-64,-65,-66,-43,-36,-10,-103,-73,-95,-87,-84,-67,-62,-65,-54,-112,-62,-67,-70,-59,-52,-38,-67,-55,-12,-23,25,-18,-11,-29,-15,-22,-43,-64,-56,-45,-36,-30,-22,-8,-27,-52,-58,-50,-62,-27,-26,-38,3,REST
0.44375,-101,-65,-68,-53,-32,-18,-24,-105,-56,-64,-67,-44,-15,5,-48,-59,-58,-59,-40,-34,-5,-89,-66,-86,-77,-74,-53,-48,-54,-47,-96,-48,-50,-47,-38,-33,-26,-53,-45,-11,-24,-15,-25,-9,-37,-14,-28,-43,-62,-61,-46,-35,-30,-22,-8,-30,-56,-65,-52,-65,-49,-38,-53,-15,REST
0.45,-98,-62,-60,-39,-22,-17,-31,-105,-56,-64,-63,-43,-27,-15,-49,-66,-65,-65,-51,-49,-23,-114,-80,-99,-93,-91,-56,-48,-62,-65,-107,-45,-55,-44,-34,-35,-26,-68,-55,-21,-22,-33,-33,-17,-31,-18,-21,-41,-65,-70,-53,-41,-35,-27,-17,-23,-51,-67,-58,-69,-56,-46,-74,-35,REST
0.45625,-82,-43,-37,-15,5,9,-6,-81,-37,-42,-44,-22,-5,10,-26,-44,-50,-48,-33,-30,-1,-92,-62,-80,-70,-69,-22,-16,-39,-34,-72,-13,-12,2,7,8,14,-32,-13,7,-12,-2,-20,-18,-7,-22,2,-25,-54,-59,-44,-35,-29,-22,-16,-22,-42,-59,-56,-66,-44,-42,-78,-40,REST
0.4625,-40,-8,-1,23,35,31,4,-64,-18,-29,-26,-8,4,3,-24,-40,-46,-43,-29,-32,-13,-75,-50,-80,-61,-57,-8,-20,-47,-18,-82,-15,-1,12,11,4,-4,-57,-34,-10,-26,-32,2,-16,-16,-30,-25,-37,-61,-60,-46,-38,-34,-30,-20,-40,-51,-54,-54,-62,-42,-39,-71,-37,REST
0.46875,-78,-33,-16,7,20,14,-18,-95,-37,-37,-31,-10,-1,-12,-35,-49,-48,-41,-24,-30,-14,-75,-62,-93,-60,-55,-14,-34,-65,-22,-72,-20,-2,6,2,-3,-18,-74,-24,-14,1,-10,6,-45,-12,-14,-8,-17,-31,-30,-14,-4,-1,-1,4,-2,-15,-12,-14,-16,-25,-9,-35,-5,REST
0.475,-53,-7,9,26,36,31,-4,-54,1,1,-1,17,27,18,2,-9,-7,-2,14,5,21,-81,-52,-89,-46,-43,-6,-29,-63,-2,-39,-13,17,17,10,9,-18,-72,4,-6,20,18,12,-12,-5,-11,5,-4,-15,-14,1,11,9,7,4,-1,-14,-7,-7,-17,-5,25,3,25,REST
0.48125,-37,-5,-2,4,15,7,-23,-53,-10,-14,-16,-5,3,-3,-18,-27,-24,-20,-10,-19,-4,-95,-74,-109,-68,-67,-32,-49,-77,-26,-58,-32,-8,-10,-16,-17,-40,-93,-12,-25,-6,-27,-35,5,-36,-28,-27,-29,-34,-31,-17,-8,-8,-14,-13,-26,-34,-24,-24,-39,-12,23,-2,19,REST
0.4875,-45,-15,-8,4,13,4,-24,-57,-12,-14,-14,10,-4,-7,-17,-22,-21,-15,-5,-15,-5,-87,-67,-101,-62,-62,-22,-34,-69,-31,-67,-20,-6,5,-1,-4,-19,-72,-14,-12,-18,-19,-39,8,-36,-14,-22,-21,-23,-21,-8,-4,3,-4,2,-25,-30,-23,-15,-28,-25,8,-26,-8,REST
0.49375,-64,-23,-11,9,17,11,-14,-71,-10,-15,-16,3,2,4,-15,-23,-18,-17,-3,-12,4,-111,-79,-107,-84,-81,-34,-42,-72,-48,-93,-39,-27,-17,-14,-18,-24,-66,-38,-7,-24,30,-24,8,-32,-8,-31,-38,-42,-39,-18,-9,4,3,10,-46,-53,-36,-15,-17,-44,-14,-50,-37,REST
0.5,-90,-50,-34,-15,4,4,-13,-102,-37,-32,-29,1,7,24,-46,-44,-36,-28,-5,-6,19,-131,-98,-119,-110,-107,-50,-52,-68,-72,-109,-48,-47,-34,-29,-32,-30,-60,-67,-6,-37,9,-33,0,-39,6,-35,-50,-55,-48,-21,-4,9,12,18,-54,-63,-42,-7,-8,-54,-20,-45,-37,REST
0.50625,-109,-63,-42,-19,3,-5,-27,-115,-53,-39,-29,-1,-4,1,-49,-52,-41,-27,-10,-11,3,-137,-102,-124,-128,-125,-57,-64,-83,-98,-131,-64,-54,-38,-35,-41,-49,-82,-83,-26,-42,-33,-60,6,-60,-10,-41,-45,-54,-44,-20,-6,-1,-1,4,-41,-52,-34,-12,-23,-51,-23,-46,-37,REST
0.5125,-112,-53,-32,-12,2,-10,-36,-95,-30,-17,-11,4,4,-4,-24,-22,-14,-2,8,4,13,-195,-143,-168,-181,-173,-67,-88,-125,-128,-136,-67,-46,-33,-37,-44,-61,-108,-76,-23,-35,16,-59,6,-31,8,-7,-7,-17,-6,12,20,25,21,30,-4,-16,-1,9,-2,-20,-2,-36,-16,REST
0.51875,-82,-39,-26,-10,2,-12,-37,-70,-15,-19,-18,-3,1,5,-12,-19,-17,-14,-5,-8,8,-158,-121,-158,-101,-103,-69,-96,-127,-36,-95,-68,-49,-43,-48,-50,-70,-115,-13,-27,-9,12,0,-17,-16,2,-11,-21,-35,-33,-15,-8,-4,-3,11,-24,-38,-29,-15,-25,-10,5,-33,-3,REST
0.525,-53,-41,-41,-29,-14,-26,-38,-68,-20,-39,-41,-26,-18,-2,-13,-29,-33,-34,-23,-25,-4,-71,-68,-107,-31,-33,-50,-68,-83,1,-75,-61,-41,-36,-39,-34,-43,-82,-1,-11,17,6,8,-4,-17,-3,-7,-20,-33,-32,-16,-10,-8,-7,1,-18,-34,-26,-16,-20,-16,-2,-39,-5,REST
0.53125,-60,-31,-29,-17,2,-6,-23,-64,-6,-20,-23,-18,-10,-1,-12,-17,-17,-17,-11,-18,-2,-130,-88,-118,-94,-89,-46,-56,-89,-44,-87,-40,-33,-24,-19,-19,-25,-81,-15,-13,-7,-13,-33,11,-32,-1,-20,-13,-22,-12,2,1,4,1,5,-8,-19,-10,-11,-18,-18,-1,-40,-2,REST
0.5375,-48,-13,-7,10,35,31,0,-52,6,0,1,17,15,20,-7,-6,2,5,7,-1,13,-116,-73,-112,-73,-73,-22,-32,-72,-31,-59,-6,-2,4,15,17,6,-58,-12,10,-19,27,-20,-18,-26,1,-15,-5,-14,-1,13,3,2,-3,-4,-7,-12,-8,-23,-37,-13,7,-46,6,REST
0.54375,-35,9,18,30,55,50,16,-49,21,18,22,36,32,31,2,5,15,15,18,2,10,-117,-89,-115,-66,-62,-21,-36,-72,-33,-46,-7,8,11,15,18,-6,-73,-24,1,-20,-17,-12,6,-21,-13,-15,-2,-12,-3,11,-1,-4,-10,-11,-9,-13,-18,-29,-39,-14,2,-59,5,REST
0.55,-46,13,24,32,53,36,-8,-52,20,21,23,34,30,4,5,4,16,13,23,5,2,-120,-98,-128,-82,-78,-31,-50,-88,-32,-54,-8,7,9,8,10,-18,-83,-22,-10,-1,-25,-29,26,-7,5,-12,-1,-10,4,21,16,20,14,13,-7,-13,-8,-7,-3,-16,2,-52,13,REST
0.55625,-47,10,24,34,62,48,0,-58,15,22,30,50,46,22,-3,0,17,20,36,23,24,-111,-81,-109,-75,-71,-22,-34,-80,-25,-52,-2,15,16,18,22,-6,-77,-22,3,-4,4,-25,1,-22,5,-32,-22,-31,-13,11,10,15,8,6,-37,-38,-28,-17,-19,-30,-8,-52,10,REST
0.5625,-36,25,32,39,65,54,5,-58,13,21,29,42,42,23,-13,-9,9,14,26,10,13,-93,-63,-92,-51,-50,-8,-27,-68,-22,-33,9,26,23,26,31,-1,-77,-17,8,-7,36,-14,-16,-23,-2,-28,-22,-32,-18,7,3,4,-3,-2,-30,-33,-29,-28,-40,-39,-21,-65,1,REST
0.56875,-41,17,29,35,65,50,8,-62,5,14,24,31,30,20,-7,-10,7,15,18,0,5,-98,-63,-93,-62,-56,-15,-27,-67,-20,-46,3,10,5,12,17,2,-77,-2,4,-18,3,-25,-5,-26,-3,-17,-13,-30,-17,2,1,-2,-8,-3,-18,-29,-30,-30,-40,-34,-20,-73,-2,REST
0.575,-58,-15,-6,-4,25,18,-14,-88,-23,-17,-11,1,5,-4,-18,-26,-19,-13,-7,-18,-10,-110,-96,-126,-83,-80,-60,-64,-98,-48,-71,-45,-34,-45,-35,-24,-36,-115,-50,-32,-32,-34,-30,-7,-45,-18,-33,-32,-51,-35,-19,-14,-12,-13,-10,-23,-38,-33,-26,-23,-29,-12,-67,-3,REST
0.58125,-85,-44,-47,-51,-19,-17,-43,-100,-43,-47,-43,-25,-3,-4,-36,-36,-33,-29,-9,-10,3,-148,-126,-164,-102,-102,-92,-99,-130,-65,-89,-65,-56,-69,-62,-49,-61,-121,-55,-31,-36,4,-51,-15,-36,3,-12,-10,-26,-10,3,12,18,18,17,2,-12,-4,4,8,-13,13,-35,12,REST
0.5875,-89,-54,-52,-51,-22,-20,-46,-93,-36,-40,-36,-27,1,3,-21,-23,-21,-20,-2,-4,6,-148,-136,-176,-108,-106,-102,-116,-145,-77,-105,-80,-66,-78,-75,-64,-79,-130,-56,-42,-46,-47,-21,-33,-22,-6,1,-14,-32,-21,-14,-8,-3,-4,1,-16,-27,-36,-27,-29,-16,8,-43,4,REST
0.59375,-102,-73,-65,-56,-40,-41,-65,-113,-53,-56,-54,-53,-27,-33,-36,-45,-42,-42,-27,-34,-22,-155,-139,-176,-125,-120,-111,-122,-149,-91,-114,-98,-80,-88,-86,-77,-84,-128,-72,-50,-41,-47,-37,3,-45,-17,-42,-45,-54,-49,-42,-34,-27,-21,-7,-43,-54,-59,-46,-35,-41,-24,-78,-21,REST
0.6,-117,-82,-79,-64,-49,-44,-64,-122,-61,-71,-72,-61,-33,-27,-53,-57,-54,-52,-37,-41,-17,-161,-133,-167,-121,-119,-105,-115,-142,-91,-106,-86,-73,-79,-80,-72,-75,-117,-73,-40,-48,-22,-40,-3,-48,-2,-45,-43,-49,-40,-30,-17,-10,1,22,-36,-46,-37,-20,1,-52,-35,-80,-12,REST
0.60625,-95,-54,-54,-45,-37,-36,-54,-99,-33,-41,-44,-42,-23,-11,-32,-30,-30,-31,-25,-31,-11,-133,-103,-147,-86,-83,-79,-93,-127,-46,-74,-68,-44,-59,-62,-49,-63,-120,-38,-30,-24,10,-24,-21,-31,-21,-32,-27,-40,-36,-30,-22,-21,-21,-9,-26,-41,-43,-41,-39,-46,-31,-74,4,REST
0.6125,-61,-24,-37,-37,-29,-31,-43,-65,-6,-24,-39,-33,-25,-14,-9,-11,-21,-33,-30,-41,-26,-118,-92,-133,-67,-65,-61,-71,-104,-23,-45,-44,-27,-41,-42,-27,-39,-98,-14,-23,2,-32,-19,-22,-29,-29,-30,-20,-35,-34,-27,-27,-32,-35,-32,-32,-39,-44,-52,-54,-42,-32,-81,-4,REST
0.61875,-34,-2,-22,-18,-8,-12,-38,-39,10,-15,-34,-22,-24,-26,-7,-8,-17,-29,-31,-45,-41,-120,-92,-126,-78,-74,-55,-71,-101,-37,-39,-33,-20,-31,-31,-24,-48,-117,-15,-44,-27,-71,-29,-21,-39,-51,-40,-27,-43,-35,-29,-35,-43,-53,-50,-41,-46,-45,-61,-72,-47,-37,-100,-23,REST
0.625,-50,2,-3,5,6,-10,-50,-54,12,6,-3,-9,-20,-34,-1,5,4,-4,-12,-31,-37,-96,-83,-111,-49,-48,-31,-57,-86,-13,-18,-14,17,5,-4,3,-30,-102,-5,-29,-10,-16,12,-26,1,-34,-6,7,-3,3,8,1,-10,-23,-24,-2,-4,-1,-22,-34,-28,-14,-90,-8,REST
0.63125,-25,32,31,37,36,18,-22,-39,34,29,19,14,8,-6,23,21,22,11,6,-12,-15,-80,-67,-109,-41,-39,-26,-53,-87,-12,-38,-15,9,-1,-11,-10,-33,-103,-16,-26,3,-24,8,-16,-5,-29,-4,4,-11,-4,8,3,-12,-23,-19,-9,-12,-2,-22,-34,-10,17,-62,18,REST
0.6375,-51,-9,-13,4,3,-7,-43,-62,4,-7,-17,-11,-10,-24,-1,-1,-3,-10,-7,-25,-28,-131,-92,-128,-83,-81,-55,-77,-106,-34,-56,-40,-21,-26,-33,-32,-53,-115,-15,-34,18,-46,-12,-6,-1,-23,0,1,-10,3,13,5,-12,-21,-16,-1,-1,14,-18,-30,4,37,-40,41,REST
0.64375,-43,-5,-15,2,6,-12,-48,-45,20,3,-10,2,-7,-25,6,16,10,5,3,-18,-22,-121,-83,-117,-76,-76,-55,-74,-96,-24,-44,-43,-20,-28,-37,-33,-55,-109,4,-26,16,-13,-13,-39,-13,-20,-14,4,-2,7,12,1,-16,-23,-21,2,2,8,-25,-36,10,35,-45,41,REST
0.65,-44,-13,-29,-19,-17,-32,-56,-51,10,-15,-32,-26,-30,-28,3,8,-3,-15,-23,-41,-37,-111,-91,-134,-67,-65,-68,-86,-108,-31,-53,-54,-35,-48,-57,-51,-65,-116,-20,-25,-18,1,-3,-32,-7,-30,-14,-1,-13,-9,-6,-22,-35,-40,-31,-10,-10,-16,-48,-60,2,11,-71,21,REST
0.65625,-58,-30,-42,-38,-34,-43,-61,-65,-7,-27,-44,-50,-46,-39,-4,-5,-14,-31,-39,-57,-54,-115,-95,-132,-69,-69,-67,-83,-105,-36,-69,-57,-39,-54,-58,-50,-62,-118,-29,-43,4,-62,-1,0,-25,-48,-30,-21,-36,-35,-30,-45,-54,-61,-53,-31,-33,-42,-66,-72,-20,-19,-100,-1,REST
0.6625,-61,-32,-44,-43,-37,-48,-67,-62,-14,-36,-54,-49,-52,-58,-17,-22,-31,-46,-49,-64,-64,-96,-83,-129,-59,-61,-67,-82,-102,-30,-70,-55,-39,-53,-55,-51,-59,-117,-33,-48,-18,-60,-21,-16,-43,-47,-46,-37,-51,-52,-42,-48,-55,-58,-48,-43,-49,-50,-60,-58,-39,-34,-101,-2,REST
0.66875,-67,-37,-52,-42,-34,-47,-65,-82,-30,-52,-64,-52,-47,-51,-41,-46,-52,-56,-52,-65,-63,-105,-100,-138,-61,-63,-75,-86,-106,-49,-79,-58,-51,-59,-62,-57,-62,-114,-73,-40,-46,-33,-37,-13,-64,-47,-65,-56,-68,-67,-50,-49,-60,-60,-51,-58,-66,-59,-65,-67,-46,-36,-89,7,REST
0.675,-87,-54,-61,-47,-39,-46,-57,-102,-43,-56,-64,-53,-41,-36,-52,-55,-54,-56,-49,-63,-56,-121,-107,-145,-92,-91,-88,-98,-108,-52,-90,-75,-66,-74,-76,-66,-65,-107,-40,-30,-53,4,-29,-14,-70,-50,-49,-48,-59,-63,-45,-48,-58,-59,-52,-41,-53,-55,-63,-72,-41,-32,-95,6,REST
0.68125,-87,-60,-58,-48,-45,-50,-53,-99,-33,-43,-55,-49,-37,-27,-41,-40,-40,-45,-45,-58,-52,-143,-108,-148,-103,-102,-91,-103,-123,-55,-88,-74,-65,-73,-77,-69,-65,-107,-45,-37,-39,-34,-7,-27,-49,-45,-35,-41,-49,-61,-43,-50,-58,-61,-54,-48,-54,-64,-63,-72,-45,-39,-109,-17,REST
0.6875,-86,-51,-54,-45,-44,-50,-55,-96,-34,-46,-63,-53,-45,-40,-46,-42,-45,-51,-56,-66,-59,-129,-100,-137,-90,-88,-74,-87,-106,-46,-86,-61,-48,-58,-63,-55,-59,-105,-39,-33,-14,-9,-26,-35,-56,-45,-47,-41,-50,-62,-46,-52,-60,-63,-53,-33,-45,-61,-65,-63,-45,-43,-102,-21,REST
0.69375,-63,-30,-37,-30,-33,-42,-52,-73,-20,-34,-53,-51,-50,-45,-36,-27,-38,-49,-59,-74,-71,-109,-84,-128,-63,-62,-54,-78,-99,-27,-66,-52,-25,-37,-48,-45,-64,-106,-20,-42,-18,-68,-6,-39,-52,-58,-40,-37,-49,-63,-51,-64,-75,-82,-68,-35,-51,-73,-83,-87,-43,-50,-102,-27,REST
0.7,-62,-30,-27,-20,-25,-50,-70,-74,-17,-27,-41,-48,-59,-70,-35,-29,-37,-46,-58,-80,-86,-109,-78,-123,-66,-66,-50,-79,-98,-25,-69,-48,-24,-32,-45,-48,-71,-106,-31,-61,-25,-91,1,-3,-54,-65,-48,-48,-61,-73,-58,-68,-78,-85,-73,-61,-69,-83,-90,-93,-50,-59,-111,-33,REST
0.70625,-71,-37,-38,-22,-23,-44,-67,-80,-32,-45,-54,-51,-56,-64,-46,-53,-58,-64,-67,-84,-84,-93,-74,-116,-61,-63,-54,-74,-77,-25,-72,-50,-37,-42,-46,-46,-59,-79,-32,-45,-27,-54,-11,-5,-51,-61,-59,-69,-84,-95,-80,-84,-88,-88,-73,-65,-79,-97,-102,-98,-68,-74,-123,-41,REST
0.7125,-75,-54,-57,-39,-32,-45,-55,-97,-50,-63,-65,-60,-60,-59,-68,-68,-70,-73,-77,-92,-83,-107,-80,-123,-77,-78,-76,-85,-91,-37,-86,-70,-66,-71,-71,-67,-70,-87,-36,-43,-14,-40,-1,-18,-48,-49,-59,-68,-82,-98,-84,-90,-93,-90,-77,-64,-78,-103,-106,-105,-78,-83,-137,-43,REST
0.71875,-90,-76,-80,-68,-62,-74,-77,-108,-58,-78,-83,-83,-76,-67,-68,-72,-77,-87,-91,-101,-89,-118,-100,-147,-96,-96,-99,-110,-122,-62,-88,-87,-86,-95,-97,-88,-90,-119,-49,-49,-28,-18,-19,-26,-62,-52,-63,-71,-81,-103,-88,-90,-94,-87,-69,-71,-83,-108,-102,-96,-80,-84,-140,-44,REST
0.725,-100,-84,-97,-86,-75,-79,-78,-115,-70,-91,-99,-89,-78,-54,-72,-81,-84,-95,-94,-101,-79,-138,-105,-143,-109,-111,-112,-112,-115,-68,-119,-104,-109,-109,-106,-98,-95,-111,-65,-45,-43,-14,-33,-26,-84,-50,-82,-86,-95,-115,-96,-95,-96,-90,-64,-85,-95,-114,-105,-92,-84,-83,-131,-50,REST
0.73125,-117,-102,-114,-102,-88,-90,-87,-118,-78,-100,-100,-92,-83,-63,-74,-81,-87,-94,-92,-103,-84,-151,-116,-141,-95,-98,-119,-118,-115,-49,-114,-104,-110,-110,-109,-101,-102,-107,-41,-51,-40,-47,-30,-32,-62,-40,-52,-57,-77,-90,-72,-78,-82,-78,-64,-58,-65,-87,-90,-84,-78,-76,-113,-45,REST
0.7375,-80,-67,-81,-72,-69,-78,-79,-77,-43,-71,-75,-80,-70,-54,-37,-51,-62,-69,-74,-86,-68,-117,-87,-122,-63,-65,-89,-98,-96,-25,-66,-77,-69,-77,-83,-74,-88,-105,-17,-54,-21,-59,5,-6,-41,-49,-37,-44,-67,-87,-73,-80,-87,-86,-75,-43,-57,-92,-104,-103,-63,-70,-111,-42,REST
0.74375,-77,-64,-78,-77,-69,-74,-82,-92,-50,-82,-91,-91,-75,-60,-48,-62,-76,-89,-90,-96,-78,-107,-85,-127,-67,-68,-93,-98,-99,-31,-61,-84,-76,-83,-89,-78,-88,-105,-26,-51,4,-50,12,-2,-51,-42,-49,-50,-69,-97,-88,-88,-88,-83,-58,-45,-59,-94,-103,-89,-52,-72,-118,-36,REST
0.75,-71,-60,-87,-92,-74,-76,-74,-76,-48,-86,-97,-91,-68,-52,-40,-57,-75,-89,-85,-87,-67,-92,-74,-117,-54,-55,-82,-87,-90,-15,-55,-67,-63,-75,-81,-69,-69,-91,-16,-35,-32,-30,11,-6,-46,-23,-41,-42,-62,-83,-77,-82,-80,-73,-52,-48,-60,-91,-98,-89,-51,-76,-113,-38,REST
0.75625,-53,-45,-80,-81,-70,-63,-61,-81,-49,-82,-97,-91,-62,-42,-48,-64,-79,-98,-87,-88,-63,-91,-81,-123,-57,-56,-83,-87,-93,-17,-61,-68,-64,-73,-78,-67,-65,-92,-24,-30,-26,-8,8,-19,-35,-36,-43,-49,-67,-88,-77,-83,-81,-75,-57,-50,-61,-90,-98,-92,-60,-82,-117,-52,REST
0.7625,-71,-51,-79,-70,-54,-42,-41,-81,-41,-67,-76,-68,-36,-14,-33,-48,-62,-78,-59,-61,-36,-85,-77,-114,-54,-56,-77,-76,-82,-35,-63,-58,-62,-65,-65,-56,-45,-81,-31,-6,2,35,4,-13,-17,-15,-21,-21,-41,-58,-43,-44,-44,-41,-25,-20,-30,-52,-61,-55,-48,-60,-105,-33,REST
0.76875,-76,-50,-73,-63,-46,-33,-27,-77,-31,-58,-61,-53,-25,-7,-19,-35,-46,-58,-46,-48,-31,-108,-69,-99,-70,-69,-73,-66,-66,-41,-63,-54,-63,-67,-66,-58,-37,-68,-31,-15,-5,-31,-7,-10,-27,-25,-16,-11,-38,-47,-34,-38,-42,-44,-35,-14,-25,-44,-54,-50,-25,-27,-84,-6,REST
0.775,-67,-43,-67,-61,-46,-33,-33,-65,-22,-52,-64,-51,-32,-26,-2,-24,-40,-53,-45,-50,-43,-89,-55,-88,-52,-52,-54,-52,-56,-26,-56,-40,-46,-45,-45,-35,-27,-58,-14,-18,12,-42,-16,-23,-24,-37,-14,-7,-31,-48,-39,-43,-47,-50,-48,-16,-26,-53,-60,-58,-16,-22,-82,-22,REST
0.78125,-33,-15,-34,-24,-5,-7,-22,-36,-1,-25,-37,-18,-17,-20,0,-11,-24,-39,-31,-42,-38,-71,-27,-63,-34,-33,-19,-26,-41,-8,-34,-4,-8,-4,-5,-4,-9,-50,17,-7,41,-20,5,-24,1,-28,0,2,-24,-36,-31,-36,-41,-43,-39,-6,-17,-46,-58,-55,-16,-35,-92,-56,REST
0.7875,-26,-1,-11,11,23,11,-13,-38,-1,-16,-31,-11,-13,-18,-5,-15,-24,-43,-37,-50,-41,-45,-18,-67,-25,-25,-5,-25,-44,1,-26,1,3,6,2,3,-12,-61,8,-10,14,-6,18,-4,-13,-25,-13,-11,-40,-55,-51,-55,-59,-54,-42,-24,-30,-64,-70,-54,-27,-50,-98,-70,REST
0.79375,-28,2,-14,3,10,2,-22,-34,-4,-25,-44,-33,-27,-28,0,-21,-35,-58,-56,-67,-49,-40,-28,-77,-14,-15,-10,-36,-55,-2,-26,-5,9,7,-4,1,-23,-75,-3,-20,-4,-31,17,-16,-3,-28,7,-5,-36,-58,-54,-63,-65,-61,-45,-9,-20,-62,-73,-54,-27,-49,-97,-48,REST
0.8,-37,6,-5,13,11,-4,-32,-46,2,-18,-33,-31,-33,-32,-3,-20,-32,-53,-56,-68,-49,-56,-36,-83,-25,-23,-14,-43,-63,-26,-45,-6,4,7,-5,-10,-34,-79,-24,-22,-6,-3,24,-20,-23,-21,-15,-14,-35,-58,-55,-62,-61,-52,-30,-12,-31,-63,-65,-32,-18,-35,-82,-14,REST
0.80625,-58,-13,-16,5,0,-13,-35,-72,-14,-36,-52,-43,-41,-30,-29,-41,-54,-77,-74,-78,-52,-64,-42,-88,-36,-35,-25,-49,-62,-32,-65,-23,-12,-10,-17,-19,-35,-69,-34,-22,-24,3,-4,-16,-51,-30,-53,-48,-69,-97,-90,-89,-86,-72,-50,-51,-71,-105,-96,-70,-38,-53,-89,-35,REST
0.8125,-69,-34,-44,-32,-30,-34,-45,-82,-38,-65,-84,-70,-61,-43,-42,-56,-79,-100,-92,-96,-68,-68,-53,-84,-43,-43,-45,-58,-59,-37,-67,-41,-36,-40,-42,-39,-40,-68,-35,-32,-16,-42,-23,-15,-27,-35,-37,-41,-68,-91,-82,-84,-81,-72,-55,-39,-58,-90,-93,-78,-59,-76,-116,-76,REST
0.81875,-65,-42,-56,-49,-43,-50,-49,-75,-36,-61,-78,-63,-63,-45,-33,-45,-65,-81,-76,-81,-54,-84,-53,-88,-61,-60,-58,-61,-57,-44,-67,-44,-50,-53,-51,-45,-33,-59,-46,-20,-13,-21,-27,0,-34,-10,-36,-35,-58,-71,-60,-58,-56,-51,-41,-35,-53,-70,-71,-70,-55,-68,-120,-78,REST
0.825,-51,-26,-54,-51,-43,-47,-39,-61,-28,-55,-73,-59,-50,-30,-31,-45,-59,-72,-65,-64,-37,-92,-56,-95,-49,-49,-59,-65,-68,-31,-53,-46,-46,-52,-51,-41,-30,-60,-13,-18,-14,-12,-16,-16,-40,-17,-46,-43,-60,-71,-54,-49,-45,-45,-45,-45,-56,-67,-67,-77,-45,-53,-116,-60,REST
0.83125,-54,-31,-42,-31,-22,-24,-25,-69,-24,-37,-41,-37,-22,-5,-28,-35,-40,-46,-32,-34,-9,-81,-46,-87,-43,-41,-37,-46,-53,-26,-61,-20,-25,-21,-21,-17,-13,-45,-12,-6,-7,9,-14,-13,-30,6,-29,-22,-31,-42,-24,-18,-8,-9,-8,-22,-31,-41,-37,-39,-29,-32,-91,-25,REST
0.8375,-50,-16,-15,-4,12,-1,-12,-65,-12,-22,-24,-14,-5,3,-20,-29,-29,-37,-21,-22,-3,-64,-43,-84,-37,-36,-26,-39,-51,-36,-60,-15,-21,-14,-12,-12,-15,-55,-43,-18,-29,-7,-18,1,-46,-2,-29,-24,-42,-53,-42,-39,-30,-27,-21,-22,-37,-59,-54,-50,-22,-27,-79,-15,REST
0.84375,-67,-23,-30,-21,-2,-15,-27,-65,-24,-41,-54,-33,-28,-19,-16,-40,-46,-62,-45,-42,-21,-41,-32,-72,-27,-27,-22,-39,-45,-33,-47,-18,-17,-14,-14,-9,-15,-45,-34,-22,-17,4,-21,-14,-25,-21,-10,-19,-43,-54,-47,-43,-36,-34,-24,-10,-27,-53,-54,-48,-21,-31,-82,-21,REST
0.85,-52,-24,-30,-19,1,-5,-16,-73,-40,-43,-51,-28,-18,-8,-27,-40,-47,-56,-39,-34,-13,-50,-22,-52,-42,-40,-16,-23,-24,-31,-48,-4,-8,-7,-6,-3,0,-22,-20,-8,3,1,12,-11,-3,-6,3,-8,-32,-44,-35,-26,-17,-15,-4,1,-16,-37,-34,-26,-16,-23,-80,-10,REST
0.85625,-66,-35,-41,-24,1,3,-8,-79,-49,-51,-52,-26,-4,3,-22,-41,-50,-62,-38,-32,-8,-88,-41,-69,-55,-56,-41,-37,-40,-47,-73,-30,-39,-37,-27,-21,-10,-25,-42,-12,-34,-23,-5,-8,-32,-13,-21,-16,-40,-52,-46,-32,-26,-18,-6,-5,-20,-39,-33,-14,-10,-3,-63,25,REST
0.8625,-78,-47,-56,-49,-20,-9,-15,-81,-50,-58,-63,-42,-15,-10,-22,-43,-54,-68,-47,-40,-17,-80,-52,-79,-39,-41,-46,-44,-44,-45,-65,-31,-35,-40,-31,-20,-5,-20,-39,-15,-20,-20,-24,-9,-31,-11,-16,-11,-32,-44,-39,-31,-27,-19,-7,6,-8,-30,-33,-13,-1,13,-49,49,REST
0.86875,-54,-17,-29,-23,1,10,-6,-65,-28,-36,-40,-24,-5,-5,-11,-27,-37,-50,-36,-34,-18,-44,-28,-55,-19,-20,-14,-18,-22,-20,-55,2,-1,-3,2,7,14,-11,-14,-6,2,-4,-16,-12,-18,-19,-6,-6,-27,-41,-39,-38,-36,-37,-27,-1,-15,-43,-54,-42,3,4,-62,27,REST
0.875,-55,-23,-30,-14,11,20,2,-71,-36,-44,-48,-21,-11,-8,-25,-42,-53,-66,-54,-54,-38,-62,-30,-60,-39,-39,-24,-23,-21,-33,-84,-19,-26,-23,-12,-5,6,-9,-33,-10,-27,-14,-15,-7,-45,-42,-35,-35,-59,-65,-60,-58,-56,-55,-42,-33,-44,-63,-70,-54,-20,-29,-95,-22,REST
0.88125,-74,-41,-50,-39,-8,6,-8,-83,-45,-54,-57,-23,-15,-18,-34,-49,-60,-68,-55,-53,-37,-62,-39,-72,-45,-46,-40,-38,-37,-44,-85,-33,-45,-42,-31,-22,-6,-14,-45,-12,-29,2,-35,-5,-40,-16,-32,-27,-52,-55,-49,-42,-40,-36,-25,-25,-36,-51,-51,-37,-36,-47,-108,-44,REST
0.8875,-79,-46,-57,-48,-23,-8,-23,-82,-46,-51,-54,-27,-16,-17,-26,-44,-51,-59,-44,-39,-26,-70,-48,-77,-49,-50,-50,-51,-50,-42,-101,-47,-51,-48,-42,-35,-24,-26,-36,-16,-9,11,-17,-13,-36,-10,-22,-14,-32,-43,-38,-26,-24,-23,-12,-8,-17,-33,-35,-20,-25,-33,-83,-18,REST
0.89375,-66,-42,-55,-52,-30,-19,-24,-68,-34,-46,-56,-33,-17,-9,-14,-30,-42,-55,-40,-34,-19,-78,-49,-70,-49,-50,-46,-44,-39,-36,-93,-50,-45,-44,-41,-34,-20,-20,-32,-6,-27,22,-30,-13,-42,-8,-18,-11,-24,-41,-39,-24,-19,-13,-1,2,-11,-27,-26,-3,0,-4,-42,22,REST
0.9,-61,-34,-47,-52,-37,-25,-22,-76,-31,-41,-54,-37,-23,-5,-21,-31,-42,-55,-41,-34,-15,-61,-42,-80,-41,-41,-44,-44,-47,-26,-76,-42,-39,-43,-42,-35,-22,-20,-36,-11,-30,-7,-19,-30,-37,-3,-25,-23,-39,-54,-43,-28,-23,-15,1,-19,-32,-42,-32,-13,3,5,-23,32,REST
0.90625,-68,-40,-46,-45,-40,-33,-30,-86,-46,-46,-53,-45,-32,-15,-34,-49,-56,-62,-51,-45,-27,-72,-42,-78,-42,-44,-44,-52,-53,-23,-74,-49,-42,-43,-43,-37,-29,-24,-34,-23,-23,-31,-5,-22,-41,-23,-34,-39,-60,-72,-57,-46,-44,-35,-17,-41,-50,-56,-46,-28,-22,-16,-41,10,REST
0.9125,-62,-36,-45,-48,-40,-36,-38,-73,-40,-45,-55,-49,-40,-30,-12,-37,-53,-62,-52,-51,-36,-60,-35,-64,-19,-22,-30,-40,-34,-15,-67,-37,-26,-30,-35,-29,-22,-26,-11,-29,2,-20,-16,-6,-30,-24,-13,-18,-42,-51,-43,-33,-35,-25,-4,-16,-29,-33,-30,-5,-29,-15,-43,15,REST
0.91875,-45,-26,-42,-48,-35,-27,-35,-65,-37,-50,-63,-47,-41,-33,-24,-39,-54,-70,-57,-60,-45,-44,-32,-61,-21,-24,-31,-33,-24,-17,-68,-34,-32,-35,-36,-32,-22,-29,-14,-31,-27,-29,-16,-16,-37,-32,-39,-36,-58,-63,-56,-51,-53,-46,-22,-20,-36,-52,-56,-40,-22,-16,-52,8,REST
0.925,-65,-48,-60,-64,-42,-31,-41,-88,-52,-64,-73,-49,-48,-45,-39,-49,-63,-74,-67,-72,-58,-52,-33,-57,-42,-45,-43,-37,-26,-27,-70,-44,-39,-43,-40,-32,-20,-36,-29,-32,-21,-7,5,-24,-30,-43,-22,-17,-36,-43,-44,-50,-55,-53,-36,4,-9,-35,-58,-45,-4,-13,-64,3,REST
0.93125,-49,-29,-45,-52,-31,-22,-36,-63,-22,-39,-50,-36,-39,-37,1,-19,-34,-46,-49,-59,-51,-54,-43,-80,-29,-32,-52,-52,-53,-14,-46,-44,-43,-52,-49,-41,-30,-53,-9,-34,22,-2,20,-33,-14,-46,4,8,-13,-24,-29,-34,-41,-40,-30,23,6,-19,-41,-27,17,1,-59,20,REST
0.9375,-46,-31,-53,-69,-46,-36,-45,-50,-23,-48,-64,-48,-42,-38,6,-22,-39,-55,-49,-52,-42,-74,-62,-88,-45,-48,-70,-64,-59,-20,-58,-55,-58,-67,-61,-51,-39,-63,-2,-41,3,-35,12,-20,-13,-31,2,4,-21,-33,-32,-26,-30,-25,-12,16,-1,-21,-26,-5,26,13,-40,37,REST
0.94375,-39,-36,-59,-71,-48,-33,-38,-51,-24,-52,-68,-44,-31,-23,8,-22,-42,-57,-44,-40,-24,-66,-51,-75,-27,-32,-59,-53,-46,-1,-53,-50,-45,-55,-51,-40,-31,-46,3,-29,15,-14,23,-24,-2,-30,1,1,-27,-36,-37,-28,-30,-25,-14,4,-8,-30,-31,-12,16,8,-32,26,REST
0.95,-48,-39,-61,-77,-49,-37,-45,-70,-30,-60,-77,-55,-40,-32,-8,-33,-53,-70,-59,-56,-41,-58,-51,-75,-32,-36,-64,-59,-49,-18,-54,-56,-54,-65,-63,-55,-46,-60,-20,-45,-7,-39,-4,-45,-27,-37,-8,-9,-34,-47,-48,-36,-36,-32,-20,8,-12,-38,-36,-16,8,-4,-39,19,REST
0.95625,-66,-51,-69,-76,-50,-40,-54,-76,-40,-65,-83,-57,-45,-40,-17,-40,-55,-72,-59,-59,-43,-54,-44,-64,-21,-27,-54,-52,-43,-24,-50,-53,-49,-55,-52,-43,-38,-55,-17,-43,-10,-35,7,-51,-30,-39,-17,-20,-41,-52,-49,-40,-39,-31,-17,-6,-23,-45,-39,-12,2,-11,-40,25,REST
0.9625,-56,-44,-59,-65,-43,-35,-49,-74,-38,-58,-75,-56,-48,-43,-22,-44,-56,-68,-58,-58,-44,-50,-39,-58,-33,-39,-54,-45,-35,-32,-61,-52,-53,-57,-54,-48,-39,-59,-27,-44,-20,-22,7,-16,-32,-33,-24,-29,-50,-57,-50,-36,-35,-23,1,-17,-34,-48,-28,7,-4,-7,-27,40,REST
0.96875,-76,-60,-74,-87,-65,-53,-59,-95,-58,-76,-91,-78,-60,-51,-33,-61,-76,-86,-78,-72,-52,-89,-62,-84,-64,-69,-81,-65,-61,-47,-97,-74,-82,-87,-80,-74,-60,-80,-73,-61,-48,-60,-24,-32,-54,-44,-42,-53,-77,-89,-83,-71,-72,-56,-36,-48,-64,-80,-64,-45,-26,-23,-45,13,REST
0.975,-100,-79,-103,-117,-98,-87,-91,-109,-77,-101,-122,-109,-97,-84,-60,-82,-100,-118,-110,-107,-83,-113,-93,-113,-78,-82,-108,-101,-92,-65,-128,-106,-103,-109,-103,-96,-86,-101,-59,-75,-22,-51,-21,-45,-44,-60,-30,-49,-70,-83,-81,-73,-76,-61,-42,-34,-50,-64,-59,-36,-41,-35,-63,-15,REST
0.98125,-87,-80,-96,-111,-94,-87,-89,-85,-61,-87,-105,-88,-85,-69,-32,-59,-79,-95,-86,-83,-62,-80,-77,-99,-51,-56,-98,-98,-81,-40,-105,-95,-85,-96,-98,-91,-87,-92,-14,-65,-9,-20,-4,-32,-39,-41,-24,-29,-48,-52,-52,-44,-51,-40,-24,-16,-32,-40,-35,-10,-28,-14,-41,8,REST
0.9875,-74,-76,-92,-102,-90,-90,-93,-86,-60,-84,-96,-84,-85,-71,-43,-62,-76,-91,-88,-92,-74,-71,-71,-107,-49,-52,-98,-101,-92,-44,-102,-100,-84,-97,-100,-94,-95,-97,-45,-78,-51,-52,-28,-34,-68,-69,-60,-59,-77,-86,-83,-83,-92,-82,-66,-50,-70,-90,-87,-69,-33,-26,-55,2,REST
0.99375,-92,-81,-94,-97,-88,-89,-97,-111,-71,-90,-102,-93,-97,-83,-64,-76,-91,-104,-106,-113,-89,-81,-65,-98,-58,-60,-81,-87,-81,-49,-90,-88,-68,-80,-85,-79,-78,-93,-51,-77,-40,-49,-17,-39,-64,-73,-56,-65,-90,-102,-93,-91,-96,-77,-56,-50,-74,-95,-81,-50,-51,-54,-78,-22,REST
1.0,-86,-72,-79,-85,-76,-74,-88,-106,-74,-88,-95,-91,-93,-84,-59,-76,-92,-104,-101,-107,-86,-67,-51,-93,-43,-46,-69,-74,-67,-45,-84,-73,-59,-71,-76,-73,-65,-87,-42,-75,-43,-84,-17,-34,-69,-54,-44,-52,-78,-91,-84,-79,-81,-67,-44,-28,-57,-75,-66,-39,-48,-50,-67,-7,REST
1.00625,-87,-81,-89,-90,-82,-73,-85,-108,-82,-95,-99,-98,-92,-85,-55,-77,-93,-103,-99,-101,-85,-61,-55,-90,-43,-48,-78,-75,-63,-47,-80,-77,-67,-78,-78,-70,-53,-78,-44,-59,-47,-60,-16,-54,-40,-49,-31,-41,-66,-82,-78,-72,-73,-64,-44,-27,-50,-71,-71,-53,-35,-32,-53,8,REST
1.0125,-78,-60,-71,-73,-64,-54,-59,-96,-58,-71,-80,-76,-69,-60,-38,-61,-73,-85,-78,-83,-66,-60,-41,-72,-29,-33,-56,-56,-49,-36,-70,-57,-46,-54,-60,-52,-39,-82,-50,-50,-24,-43,-5,-27,-41,-50,-37,-45,-64,-78,-70,-63,-64,-59,-46,-42,-57,-71,-65,-51,-34,-30,-57,0,REST
1.01875,-85,-55,-61,-59,-54,-50,-61,-101,-54,-67,-73,-64,-70,-65,-53,-68,-72,-82,-70,-79,-71,-48,-35,-68,-41,-42,-52,-51,-39,-43,-76,-51,-41,-48,-53,-48,-39,-81,-51,-52,-24,-40,-35,-22,-63,-64,-49,-48,-63,-70,-59,-54,-56,-56,-50,-32,-48,-61,-55,-46,-33,-32,-65,-5,REST
1.025,-72,-42,-40,-35,-29,-25,-41,-80,-39,-46,-51,-39,-43,-37,-37,-48,-50,-61,-45,-54,-48,-46,-26,-59,-32,-36,-36,-34,-25,-35,-56,-39,-29,-29,-34,-31,-22,-56,-31,-25,-17,29,-8,-43,-49,-50,-33,-35,-54,-64,-52,-50,-53,-49,-44,-25,-43,-62,-58,-51,-29,-36,-77,-20,REST
1.03125,-64,-45,-42,-36,-31,-28,-43,-77,-40,-50,-53,-43,-46,-39,-32,-51,-51,-67,-55,-63,-55,-55,-46,-76,-32,-35,-51,-55,-50,-42,-58,-52,-43,-45,-53,-52,-52,-99,-40,-56,-31,-39,-22,-37,-42,-48,-22,-32,-55,-67,-54,-54,-60,-53,-43,-30,-46,-60,-60,-54,-27,-36,-76,-24,REST
1.0375,-77,-61,-63,-61,-58,-62,-77,-95,-53,-65,-71,-72,-70,-73,-40,-59,-61,-77,-72,-78,-73,-52,-55,-87,-33,-36,-69,-80,-68,-51,-84,-76,-61,-67,-78,-74,-74,-112,-59,-81,-68,-76,-31,-47,-62,-60,-45,-44,-60,-73,-64,-67,-72,-67,-57,-38,-56,-71,-70,-64,-29,-36,-71,-22,REST
1.04375,-98,-73,-82,-88,-87,-87,-96,-109,-60,-81,-97,-101,-91,-91,-51,-72,-79,-97,-93,-96,-89,-69,-62,-100,-46,-51,-86,-94,-78,-61,-84,-94,-70,-85,-97,-89,-87,-118,-59,-83,-47,-77,-20,-61,-57,-68,-55,-58,-70,-92,-87,-86,-90,-82,-72,-46,-69,-87,-84,-70,-42,-51,-82,-37,REST
1.05,-86,-65,-86,-98,-102,-96,-102,-100,-58,-88,-110,-110,-102,-100,-58,-73,-90,-110,-105,-108,-99,-74,-60,-90,-43,-46,-91,-92,-67,-54,-77,-89,-72,-91,-101,-92,-85,-119,-56,-84,-34,-52,-16,-29,-51,-81,-46,-55,-76,-94,-91,-85,-86,-78,-65,-40,-67,-79,-78,-59,-50,-55,-86,-41,REST
1.05625,-83,-72,-88,-99,-97,-94,-92,-92,-55,-87,-106,-105,-89,-78,-41,-65,-84,-101,-92,-88,-73,-51,-42,-72,-31,-34,-72,-71,-44,-35,-78,-72,-56,-67,-74,-70,-60,-92,-30,-58,-7,-32,12,-31,-25,-46,-21,-28,-51,-60,-50,-42,-40,-34,-25,-17,-35,-30,-29,-11,-34,-24,-58,-7,REST
1.0625,-50,-38,-44,-54,-50,-51,-60,-51,-16,-37,-50,-51,-41,-36,7,-19,-31,-43,-29,-30,-22,-29,-7,-39,-12,-14,-33,-43,-24,2,-45,-40,-17,-27,-40,-40,-41,-71,9,-45,32,-46,70,-21,21,-8,34,24,2,-2,6,17,11,13,20,36,15,26,25,45,19,46,18,71,REST
1.06875,-24,-10,-15,-29,-24,-30,-50,-25,2,-15,-21,-29,-22,-34,40,4,-8,-22,-12,-16,-17,-13,7,-25,24,21,-12,-27,-15,22,-17,-14,7,-7,-19,-18,-26,-66,13,-37,53,-8,89,-20,51,-10,64,41,13,6,8,15,5,2,3,53,24,21,11,16,65,83,56,109,REST
1.075,2,21,5,-6,6,1,-23,4,25,4,-3,-11,4,-13,61,26,8,-4,4,-1,-2,23,25,-13,51,46,16,1,3,45,5,13,34,25,14,15,5,-55,62,-16,98,16,113,-11,81,-4,88,66,42,26,31,36,26,17,14,86,55,42,34,43,89,92,70,112,REST
1.08125,20,29,31,20,37,30,-3,23,53,31,20,15,24,1,88,51,32,20,23,15,8,43,38,1,59,54,30,16,16,52,13,27,41,34,26,23,16,-50,79,-18,120,-5,110,-7,92,1,105,83,54,34,35,36,23,17,17,93,60,41,29,40,99,92,75,110,REST
1.0875,14,22,22,8,23,21,-10,15,36,11,-5,-9,2,-12,68,25,8,-13,-11,-15,-14,8,27,-14,18,15,2,-3,3,18,-23,1,7,3,-2,-3,-1,-59,23,-29,35,-18,46,-16,29,-23,52,33,4,-13,-11,-6,-15,-12,-8,37,11,-1,-6,8,73,71,57,100,REST
1.09375,-45,-22,-19,-28,-8,-6,-30,-54,-17,-33,-40,-40,-25,-35,9,-26,-39,-53,-45,-43,-39,-52,-8,-39,-25,-29,-33,-33,-16,-30,-76,-34,-22,-27,-33,-31,-27,-77,-44,-49,-21,-41,-1,-51,-34,-52,-21,-32,-52,-60,-51,-47,-53,-51,-50,-36,-50,-53,-52,-44,7,11,0,33,REST
1.1,-88,-59,-56,-55,-37,-39,-59,-106,-63,-70,-72,-74,-60,-69,-62,-74,-81,-88,-78,-77,-73,-64,-37,-67,-58,-59,-58,-56,-43,-68,-99,-55,-48,-50,-55,-58,-50,-89,-73,-68,-55,-65,-43,-50,-74,-68,-77,-73,-84,-92,-78,-73,-77,-75,-71,-72,-84,-84,-80,-69,-59,-53,-62,-46,REST
1.10625,-108,-84,-77,-64,-48,-50,-72,-117,-80,-82,-81,-79,-70,-82,-76,-89,-88,-93,-83,-82,-81,-56,-39,-66,-54,-58,-61,-60,-43,-71,-100,-63,-52,-53,-57,-59,-55,-90,-65,-74,-50,-58,-50,-13,-86,-72,-92,-84,-97,-103,-90,-82,-82,-80,-72,-94,-104,-100,-83,-70,-92,-86,-90,-78,REST
1.1125,-101,-82,-74,-68,-56,-55,-78,-114,-76,-86,-89,-84,-72,-82,-77,-97,-98,-105,-93,-96,-90,-60,-34,-62,-48,-49,-57,-55,-40,-65,-99,-64,-52,-57,-61,-61,-56,-86,-65,-72,-69,-52,-47,-32,-91,-85,-109,-105,-117,-122,-109,-101,-102,-101,-94,-127,-128,-124,-106,-100,-119,-106,-99,-108,REST
1.11875,-103,-82,-77,-73,-66,-59,-79,-121,-79,-96,-101,-95,-86,-88,-83,-104,-111,-115,-106,-110,-103,-49,-26,-53,-40,-40,-49,-43,-31,-55,-103,-55,-50,-53,-54,-54,-41,-65,-61,-63,-55,-46,-23,-48,-90,-80,-103,-97,-116,-117,-102,-100,-101,-95,-87,-105,-114,-111,-95,-84,-119,-102,-83,-106,REST
1.125,-88,-68,-69,-69,-59,-50,-62,-97,-64,-85,-89,-87,-78,-70,-64,-88,-97,-103,-93,-95,-86,-23,-13,-45,-25,-29,-38,-36,-31,-44,-92,-52,-37,-43,-46,-43,-32,-59,-37,-49,-32,-11,-31,-32,-82,-71,-84,-81,-103,-110,-99,-94,-95,-86,-76,-83,-100,-110,-91,-75,-95,-82,-67,-75,REST
1.13125,-80,-67,-69,-79,-67,-53,-60,-100,-70,-93,-102,-98,-80,-63,-69,-93,-105,-116,-102,-98,-81,-34,-19,-46,-23,-26,-39,-38,-32,-45,-88,-50,-42,-48,-47,-49,-33,-67,-47,-52,-53,-35,-21,-24,-63,-75,-77,-83,-100,-118,-103,-97,-89,-83,-70,-81,-97,-113,-93,-75,-76,-72,-64,-46,REST
1.1375,-86,-64,-59,-69,-51,-44,-54,-105,-61,-80,-82,-81,-69,-56,-59,-81,-91,-97,-78,-81,-67,-23,-5,-37,-14,-17,-22,-22,-16,-49,-71,-32,-26,-26,-26,-26,-15,-50,-50,-44,-26,-52,-6,-34,-43,-52,-46,-60,-76,-91,-74,-71,-65,-61,-52,-51,-70,-90,-73,-62,-58,-61,-60,-20,REST
1.14375,-84,-53,-41,-48,-24,-16,-32,-91,-47,-59,-59,-59,-43,-48,-41,-61,-70,-74,-57,-60,-54,-77,-23,-42,-93,-88,-22,-16,-7,-99,-104,-32,-31,-25,-18,-21,-4,-44,-71,-37,-34,-50,-35,-32,-51,-42,-41,-55,-74,-84,-72,-68,-61,-58,-51,-51,-69,-91,-72,-64,-53,-65,-77,-44,REST
1.15,-98,-67,-58,-58,-40,-27,-49,-103,-59,-71,-72,-71,-50,-62,-58,-74,-81,-90,-71,-69,-64,-78,-32,-57,-54,-57,-30,-34,-33,-40,-75,-35,-30,-31,-34,-30,-23,-73,-25,-59,-15,-53,-6,-18,-50,-48,-67,-69,-91,-101,-89,-79,-71,-64,-51,-76,-86,-109,-79,-63,-67,-80,-89,-75,REST
1.15625,-54,-46,-52,-56,-50,-41,-58,-82,-53,-78,-85,-89,-65,-72,-52,-82,-95,-109,-90,-90,-79,20,29,-11,35,30,-12,-23,-14,2,-43,-38,-19,-29,-35,-30,-22,-66,-16,-56,-8,-51,-3,-23,-63,-71,-79,-88,-115,-124,-115,-109,-99,-89,-75,-90,-102,-128,-105,-88,-90,-101,-102,-92,REST
1.1625,-68,-62,-67,-70,-62,-49,-62,-95,-68,-89,-93,-102,-74,-75,-72,-92,-101,-110,-91,-93,-82,-23,-1,-36,-10,-12,-22,-35,-24,-27,-66,-47,-27,-34,-42,-41,-32,-80,-18,-55,-3,-48,-1,-28,-45,-53,-56,-67,-89,-94,-84,-78,-71,-63,-49,-53,-69,-88,-69,-43,-82,-86,-78,-73,REST
1.16875,-57,-54,-63,-65,-56,-53,-72,-75,-48,-70,-77,-90,-71,-74,-52,-74,-80,-90,-74,-82,-80,-18,-12,-62,11,5,-34,-58,-58,6,-60,-54,-32,-41,-53,-53,-55,-104,5,-71,11,-45,24,-46,-35,-56,-39,-48,-77,-82,-77,-76,-74,-71,-62,-40,-59,-81,-72,-49,-52,-54,-42,-39,REST
1.175,-35,-37,-54,-52,-53,-53,-73,-49,-27,-60,-74,-88,-73,-74,-31,-61,-68,-91,-77,-84,-84,29,24,-24,43,38,-14,-38,-32,17,-39,-38,-11,-21,-33,-30,-36,-86,-1,-54,15,-10,18,-41,-38,-71,-45,-48,-73,-74,-71,-74,-70,-72,-68,-51,-60,-76,-73,-53,-37,-37,-27,-26,REST
1.18125,-36,-26,-43,-44,-49,-40,-54,-55,-24,-53,-67,-82,-60,-50,-44,-61,-64,-81,-69,-73,-68,-20,1,-40,-6,-8,-36,-44,-36,-16,-67,-50,-39,-53,-55,-52,-40,-80,-14,-51,-32,-22,1,-71,-59,-64,-71,-68,-83,-81,-72,-74,-67,-68,-61,-74,-77,-81,-74,-64,-48,-46,-39,-38,REST
1.1875,-77,-70,-76,-81,-79,-64,-73,-102,-54,-74,-86,-106,-77,-71,-68,-76,-78,-95,-83,-89,-83,-73,-51,-88,-42,-44,-72,-81,-79,-40,-84,-78,-60,-77,-82,-76,-68,-102,-30,-82,-31,-98,4,-34,-55,-64,-66,-71,-85,-89,-81,-80,-77,-79,-67,-82,-84,-86,-83,-78,-67,-67,-68,-65,REST
1.19375,-54,-43,-65,-79,-85,-77,-95,-72,-37,-64,-82,-111,-89,-97,-42,-58,-69,-93,-81,-90,-88,-35,-28,-76,-6,-9,-56,-77,-76,-12,-54,-70,-44,-62,-75,-68,-68,-105,-10,-92,8,-87,14,-16,-34,-60,-54,-60,-76,-82,-70,-68,-67,-67,-59,-77,-78,-76,-69,-57,-77,-72,-80,-75,REST
1.2,-52,-51,-68,-84,-87,-78,-89,-74,-38,-61,-75,-107,-80,-79,-43,-55,-61,-80,-64,-72,-68,-53,-33,-74,-22,-24,-64,-77,-74,-27,-70,-77,-67,-81,-86,-82,-65,-107,-22,-77,-6,-57,-4,-28,-43,-42,-56,-58,-72,-72,-55,-49,-45,-46,-41,-66,-70,-62,-47,-40,-66,-56,-60,-49,REST
1.20625,-85,-81,-85,-90,-83,-68,-75,-109,-63,-76,-83,-106,-65,-62,-65,-72,-69,-79,-61,-59,-54,-69,-40,-72,-42,-45,-62,-67,-65,-53,-96,-76,-70,-69,-72,-72,-51,-98,-59,-60,-45,-38,-25,-22,-79,-37,-81,-84,-93,-90,-69,-52,-41,-39,-31,-88,-93,-72,-42,-32,-59,-38,-33,-17,REST
1.2125,-106,-90,-83,-74,-63,-42,-57,-137,-83,-82,-76,-89,-41,-41,-85,-93,-83,-83,-53,-46,-36,-62,-41,-83,-41,-44,-54,-63,-69,-66,-106,-61,-59,-53,-55,-56,-37,-84,-71,-40,-53,7,-50,-27,-108,-19,-103,-97,-100,-92,-65,-44,-26,-21,-16,-98,-99,-77,-36,-25,-64,-36,-26,-23,REST
1.21875,-86,-67,-60,-47,-32,-12,-24,-106,-60,-56,-43,-54,-10,-6,-79,-80,-63,-62,-30,-25,-10,-36,-21,-50,-27,-26,-30,-34,-32,-41,-79,-29,-28,-25,-24,-24,-4,-56,-22,-22,-32,3,-37,-27,-78,-15,-80,-76,-82,-72,-49,-33,-21,-14,-21,-73,-73,-61,-30,-24,-63,-37,-21,-40,REST
1.225,-50,-26,-25,-17,-4,9,-12,-68,-27,-31,-26,-38,-6,-12,-50,-51,-43,-46,-23,-22,-16,-23,8,-19,-4,-4,-6,-12,-12,-5,-42,-17,-4,-7,-9,-8,7,-45,-14,-28,-30,-16,-1,-21,-49,-32,-59,-62,-72,-68,-55,-43,-35,-32,-36,-67,-74,-67,-44,-39,-51,-36,-13,-52,REST
1.23125,-56,-35,-35,-29,-16,-10,-27,-92,-40,-51,-52,-61,-32,-34,-59,-71,-65,-74,-51,-53,-44,-25,-8,-43,4,2,-20,-29,-29,-14,-55,-27,-16,-21,-26,-22,-6,-55,-34,-44,-26,-50,-11,-32,-60,-44,-68,-74,-87,-86,-72,-65,-56,-52,-48,-80,-89,-82,-63,-58,-56,-51,-21,-68,REST
1.2375,-58,-38,-36,-41,-21,-13,-35,-86,-39,-55,-54,-67,-40,-53,-60,-73,-69,-78,-55,-57,-52,-22,5,-27,26,23,-3,-12,-13,-2,-45,-9,7,0,-5,-1,7,-49,-13,-45,-8,-71,-8,-50,-57,-39,-57,-62,-76,-71,-59,-51,-43,-41,-34,-63,-72,-63,-51,-39,-58,-48,-30,-46,REST
1.24375,-30,-14,-7,-10,8,13,-20,-62,-21,-32,-29,-43,-19,-39,-41,-53,-50,-58,-36,-39,-37,1,21,-21,39,38,18,2,-11,14,-37,-1,19,18,11,8,9,-45,2,-45,-15,-38,-7,-18,-52,-44,-51,-61,-77,-69,-58,-53,-47,-47,-42,-72,-79,-69,-64,-56,-59,-48,-46,-34,REST
1.25,-48,-27,-23,-13,-4,-4,-30,-77,-37,-42,-36,-54,-30,-41,-48,-63,-53,-61,-41,-48,-45,1,14,-29,21,21,12,-11,-19,1,-45,-2,14,13,4,2,2,-49,-14,-41,-8,-25,-3,-15,-33,-34,-38,-44,-61,-51,-42,-43,-38,-41,-32,-54,-59,-55,-52,-50,-53,-45,-51,-30,REST
1.25625,-27,8,10,4,10,2,-25,-49,-1,-8,-11,-39,-18,-32,-20,-35,-25,-38,-23,-33,-33,21,37,-6,48,43,29,-3,-10,23,-25,5,41,31,14,12,-4,-55,17,-45,30,-29,22,-20,-31,-39,-41,-33,-51,-39,-32,-35,-35,-42,-35,-37,-47,-42,-51,-48,-37,-30,-31,-14,REST
1.2625,3,27,24,0,-2,-16,-44,-23,15,4,-6,-44,-30,-43,-3,-17,-16,-34,-22,-35,-37,16,22,-23,49,46,9,-23,-22,33,-20,-10,31,14,-10,-6,-26,-69,44,-45,36,1,18,-26,-19,-41,-29,-22,-46,-27,-21,-24,-24,-33,-30,-30,-36,-24,-34,-38,-23,-12,-4,3,REST
1.26875,1,14,5,-15,-20,-26,-41,-29,10,-5,-11,-41,-29,-28,-3,-14,-17,-33,-21,-31,-29,11,24,-28,30,28,2,-26,-29,17,-39,-11,17,4,-14,-14,-20,-56,20,-32,8,2,7,-11,-24,-37,-26,-24,-43,-29,-19,-18,-18,-24,-25,-29,-35,-20,-22,-19,-13,7,28,21,REST
1.275,-27,-2,2,-6,-8,-10,-30,-50,6,-9,-7,-35,-21,-30,-5,-22,-22,-34,-21,-26,-28,10,40,-10,30,28,22,-4,-12,12,-41,-2,31,27,8,3,-4,-38,6,-32,4,-29,40,-2,-15,-33,-23,-31,-51,-41,-26,-24,-24,-29,-26,-21,-37,-28,-25,-20,-8,17,40,33,REST
1.28125,-22,-1,8,15,8,-3,-29,-57,-7,-14,-7,-48,-22,-34,-26,-40,-34,-42,-25,-32,-34,30,37,-18,39,38,32,-4,-18,18,-30,4,38,33,10,1,-11,-41,11,-34,31,-40,41,1,-10,-28,-25,-34,-54,-43,-32,-30,-32,-33,-23,-28,-42,-33,-29,-23,-13,14,26,37,REST
1.2875,-22,-3,2,3,-1,-15,-37,-55,-15,-18,-14,-56,-34,-45,-20,-37,-34,-44,-33,-43,-44,4,23,-32,29,27,18,-18,-33,21,-56,-4,25,21,-1,-8,-17,-45,18,-34,26,-35,45,-16,-6,-31,-23,-25,-39,-34,-29,-29,-34,-34,-17,-24,-33,-32,-29,-14,-17,9,12,45,REST
1.29375,-21,-2,1,-6,-3,-12,-31,-51,1,-4,-6,-47,-32,-40,-3,-23,-20,-35,-29,-40,-41,-12,18,-26,16,14,13,-15,-24,12,-55,-5,21,22,-1,-5,-14,-41,12,-29,29,-22,54,-15,-6,-30,-24,-30,-43,-38,-35,-39,-43,-40,-24,-29,-42,-46,-42,-28,-21,-1,-3,36,REST
1.3,-20,3,4,-2,-6,-21,-41,-59,-4,-13,-22,-59,-47,-49,-22,-36,-35,-53,-47,-55,-54,0,11,-29,-3,-2,11,-17,-26,-12,-63,-5,19,19,-5,-14,-28,-60,-11,-42,25,-31,36,14,-16,-33,-22,-37,-59,-52,-48,-49,-51,-44,-24,-34,-45,-54,-49,-30,-26,-13,-23,23,REST
1.30625,-22,4,2,3,-7,-23,-43,-44,-3,-15,-26,-56,-41,-45,-8,-29,-36,-54,-41,-48,-46,-6,6,-39,1,1,8,-19,-31,6,-50,-10,18,15,-6,-13,-26,-48,42,-32,36,-7,31,10,-18,-33,-22,-26,-46,-46,-45,-46,-48,-42,-26,-21,-34,-54,-49,-28,-25,-22,-42,10,REST
1.3125,-16,-10,-6,-3,-14,-18,-29,-48,-2,-13,-21,-55,-32,-25,-5,-25,-28,-46,-37,-45,-40,-10,11,-34,-6,-5,2,-25,-29,2,-60,-11,10,10,-10,-17,-20,-36,6,-14,2,25,45,-3,-12,-35,-24,-20,-32,-32,-34,-40,-40,-33,-17,-16,-23,-40,-38,-18,-17,-21,-45,10,REST
1.31875,-32,-8,-1,6,2,-6,-20,-60,5,-4,-10,-42,-23,-17,-2,-17,-16,-35,-24,-31,-30,1,12,-27,7,7,8,-16,-26,6,-69,1,17,20,1,-8,-12,-30,-1,-12,13,11,53,17,-5,-16,-21,-13,-30,-18,-26,-26,-25,-15,5,-13,-17,-25,-20,2,-10,-7,-31,17,REST
1.325,-27,3,8,10,9,1,-12,-56,14,1,-7,-40,-14,-13,0,-11,-11,-31,-18,-23,-18,-3,12,-31,18,15,12,-12,-25,8,-59,1,21,20,4,-1,1,-18,15,-6,32,12,38,7,-11,-13,-20,-18,-35,-24,-25,-26,-26,-15,-2,-16,-20,-26,-21,-6,-10,-2,-25,9,REST
1.33125,-17,11,18,16,11,3,-5,-54,14,4,-3,-36,-16,-13,-1,-10,-11,-31,-20,-25,-23,13,23,-13,25,23,22,-2,-10,16,-36,13,33,32,13,6,5,-7,27,-12,26,-31,29,-26,-6,-17,-17,-12,-25,-16,-12,-22,-26,-20,-13,-12,-13,-21,-23,-19,-12,-2,-32,-4,REST
1.3375,-5,24,34,36,29,5,-18,-34,32,26,24,-18,-18,-35,18,8,8,-8,-8,-26,-36,16,24,-19,21,22,26,-4,-14,42,-40,18,41,39,20,12,-5,-18,32,-29,32,-39,45,6,8,-30,-1,11,-5,4,7,-16,-27,-32,-29,6,7,-10,-32,-38,-6,0,-48,-1,REST
1.34375,11,35,39,37,29,10,-27,-15,50,40,31,-16,-14,-36,44,30,23,2,-5,-29,-41,5,28,-12,21,22,24,-4,-12,41,-34,10,34,30,10,5,-16,-35,25,-37,32,-25,33,7,6,-52,5,16,-5,-3,-2,-29,-44,-50,-51,12,6,-20,-45,-53,2,2,-61,13,REST
1.35,-2,23,22,22,4,-10,-40,-24,34,20,6,-39,-34,-46,20,9,2,-22,-26,-48,-57,-7,11,-29,7,7,8,-18,-27,21,-41,5,21,18,-3,-6,-22,-51,21,-44,39,-42,34,-11,-11,-56,6,2,-12,-21,-20,-40,-51,-56,-52,7,-4,-37,-51,-56,4,-2,-69,13,REST
1.35625,-8,12,10,22,11,-4,-31,-35,15,6,1,-47,-29,-48,3,-8,-11,-30,-25,-44,-54,-16,4,-32,-1,3,11,-9,-25,13,-55,11,20,22,8,6,4,-30,17,-24,16,-24,10,-4,-17,-44,2,1,-12,-14,-13,-28,-34,-38,-35,26,7,-25,-32,-36,8,-1,-62,15,REST
1.3625,-8,15,22,34,34,29,4,-36,22,15,14,-31,-2,-17,14,2,5,-11,-4,-24,-32,16,22,-16,23,26,39,23,8,18,-42,37,46,50,39,33,40,1,18,6,24,18,24,-8,6,-35,8,11,-1,2,2,-14,-20,-27,-26,22,10,-16,-23,-30,8,1,-48,8,REST
1.36875,-3,30,48,62,57,53,26,-41,27,29,30,-15,12,-1,13,9,13,2,5,-15,-23,25,40,8,24,27,56,43,26,27,-38,53,60,67,55,45,56,10,17,20,24,26,36,-9,1,-26,-6,2,-3,5,7,-6,-10,-18,-16,5,3,-13,-12,-10,3,-2,-33,-4,REST
1.375,-8,30,46,62,59,59,34,-42,31,32,36,-11,29,16,9,13,13,10,15,4,2,3,42,14,11,11,47,39,32,21,-39,39,50,53,43,39,45,11,12,17,18,10,35,-11,-8,-11,-14,-4,-14,2,7,3,-1,-4,-2,6,-3,-12,-1,5,5,4,-20,5,REST
1.38125,-10,19,23,26,31,34,10,-49,15,8,4,-29,14,3,-1,-2,-8,-15,-8,-10,-11,12,32,2,16,16,30,21,17,26,-38,24,36,30,19,19,20,-7,20,-13,27,-31,22,8,-17,-28,-27,-18,-32,-18,-14,-18,-21,-27,-23,-23,-27,-35,-27,-31,-8,-10,-39,-5,REST
1.3875,1,24,24,18,27,28,-2,-42,14,5,-1,-21,6,-15,-5,-10,-10,-17,-7,-12,-20,26,45,16,33,36,50,37,29,53,-13,46,64,56,44,45,44,14,45,-6,41,-17,20,5,-17,-24,-33,-22,-33,-17,-10,-13,-16,-25,-23,-32,-36,-37,-28,-33,-29,-25,-63,-14,REST
1.39375,23,45,50,45,53,55,23,-23,25,22,18,-7,25,4,0,-7,-2,-6,4,-2,-9,46,61,29,53,56,72,57,44,52,8,56,73,68,62,56,57,20,35,7,17,-3,13,0,-26,-27,-37,-30,-42,-22,-13,-17,-17,-26,-30,-39,-43,-41,-35,-44,-42,-34,-83,-18,REST
1.4,1,24,31,25,38,40,14,-43,7,7,7,-23,16,-3,-5,-14,-6,-10,1,-3,-12,35,45,2,33,36,53,41,27,32,-7,45,56,52,43,41,43,8,26,-2,32,2,32,-6,-10,-23,-12,-6,-18,-1,5,2,-1,-7,-16,-16,-20,-13,-13,-22,-37,-25,-72,-15,REST
1.40625,15,35,36,26,43,44,13,-8,32,22,20,-10,25,1,35,15,14,8,18,11,-2,48,46,3,53,55,51,39,20,64,4,44,62,56,44,48,42,8,59,-3,49,1,44,-17,10,-14,1,10,-1,14,19,17,13,5,-1,-1,-2,8,7,-4,-17,2,-39,14,REST
1.4125,39,55,54,42,59,56,29,0,48,40,37,3,43,20,31,26,27,22,35,26,17,59,65,26,68,72,75,63,45,79,30,73,90,86,73,74,70,26,68,17,60,18,44,1,29,0,17,18,11,20,25,26,24,16,15,1,1,11,14,7,3,24,-14,36,REST
1.41875,36,63,67,62,76,67,39,-15,44,35,34,6,40,19,24,16,16,10,22,16,11,42,76,42,62,67,82,69,52,59,40,76,95,88,72,71,64,24,45,0,40,-16,39,1,10,-11,-2,2,-5,2,9,13,12,11,6,-11,-10,1,11,14,5,23,-8,34,REST
1.425,23,56,63,54,64,55,25,-24,38,31,25,-2,31,14,25,15,14,5,18,15,9,59,73,25,71,73,84,62,37,70,41,71,98,87,71,74,59,21,49,1,50,8,55,1,21,-14,12,20,7,11,15,12,8,6,-4,15,9,6,5,-4,7,13,-18,14,REST
1.43125,32,63,67,59,67,59,26,-11,46,35,25,1,31,17,37,23,18,6,16,7,3,49,62,17,54,55,79,54,31,61,21,73,86,84,71,67,52,3,39,-2,43,-4,30,-17,14,-17,13,23,8,8,17,8,3,1,-4,21,14,8,3,-2,15,7,-27,7,REST
1.4375,8,33,50,63,68,56,20,-32,29,23,21,-1,25,5,21,9,10,1,9,-1,-6,38,39,-1,34,37,64,35,12,34,2,56,68,71,60,53,42,-7,28,-6,41,-22,24,-14,-6,-15,8,16,-1,3,2,-9,-14,-14,-14,27,13,-3,-13,-9,25,11,-32,18,REST
1.44375,7,27,41,54,53,42,11,-25,28,17,14,-17,10,-9,21,3,5,-7,-2,-15,-16,45,46,6,43,45,65,36,14,43,14,50,65,68,58,53,37,-6,41,-8,44,-10,13,11,-17,-18,1,7,-10,2,2,-11,-17,-17,-17,11,-1,-6,-15,-16,20,11,-37,23,REST
1.45,15,28,41,48,50,37,5,-34,18,16,19,-21,3,-11,4,-6,2,-6,-3,-16,-18,19,38,5,24,28,53,29,15,36,-9,37,53,54,42,32,15,-22,14,-22,-24,-27,5,-6,-26,-26,-12,-9,-21,-2,-1,-5,-10,-11,-7,-1,-8,-7,-8,-4,7,6,-31,14,REST
1.45625,-23,-2,23,22,27,17,-14,-78,-7,1,5,-33,-3,-21,-16,-18,-12,-11,-8,-14,-16,22,30,-11,20,20,33,10,4,27,-21,16,41,36,22,17,2,-24,5,-20,-1,2,26,-16,-24,-2,-11,-9,-22,2,3,8,7,11,22,9,4,6,15,32,6,15,-7,16,REST
1.4625,-19,1,18,4,16,12,-5,-65,3,0,-3,-37,5,-1,-12,-14,-11,-9,-2,-5,-3,25,36,-3,27,29,27,9,5,36,-3,18,42,27,15,18,8,-16,11,-9,14,7,23,-3,-29,3,-13,-4,-18,3,6,10,10,12,15,5,2,4,12,21,12,23,4,23,REST
1.46875,-8,8,20,3,15,11,-6,-54,12,3,-4,-40,-5,-12,-1,-9,-8,-11,-7,-17,-20,2,13,-20,14,15,18,5,-3,25,-9,24,37,27,18,17,12,-23,3,-23,-6,-36,-10,-2,-29,-15,-11,-6,-20,-2,-2,-2,-8,-12,-13,-16,-12,-8,-8,-2,2,14,-11,11,REST
1.475,-14,8,25,17,32,19,-11,-52,13,10,8,-23,-8,-28,-10,-2,-2,-2,-4,-22,-33,6,18,-18,4,5,30,23,6,23,-20,32,44,44,38,34,27,-10,-17,-22,-5,-23,10,-4,-25,-23,-16,-9,-15,10,6,2,-7,-15,-15,-10,-4,6,-5,4,-4,14,-22,14,REST
1.48125,-20,13,25,19,39,21,-7,-53,18,17,17,-18,0,-20,-12,5,8,8,3,-14,-23,23,24,-11,11,13,26,25,10,12,-26,24,29,26,25,20,19,-3,1,-18,-2,3,0,-8,-33,-21,-33,-10,-6,17,16,10,3,-7,-14,-11,-4,12,0,2,1,18,-25,14,REST
1.4875,-30,-15,2,-4,25,14,-7,-65,3,5,10,-29,5,-4,-12,-1,4,7,4,-3,-10,12,24,-7,13,14,17,19,9,18,-25,19,23,18,18,16,22,-5,16,-15,14,-16,5,-36,-38,-22,-30,-6,-2,24,27,21,12,3,-5,-3,10,25,15,15,11,26,-23,20,REST
1.49375,-7,7,18,12,34,23,0,-45,16,17,18,-15,11,-8,-6,8,9,13,13,6,-9,3,30,1,30,31,22,21,18,33,1,20,32,21,17,20,22,2,10,-17,-5,-39,-20,-5,-57,-7,-36,-14,-12,18,22,19,11,5,6,-13,2,23,18,28,14,34,-14,30,REST
1.5,-10,10,13,4,13,3,-17,-51,11,8,5,-29,-2,-25,-18,-2,0,3,2,-6,-18,-11,-5,-45,6,8,-1,-10,-20,15,10,13,29,8,0,6,-4,-18,5,-28,-17,-8,-13,9,-39,-14,-22,-5,-10,24,29,22,14,7,2,-4,13,28,20,24,12,34,-10,29,REST
1.50625,5,33,37,21,29,17,-4,-33,34,36,31,1,18,-2,16,26,27,26,27,13,-1,25,20,-22,21,23,33,18,6,39,25,43,62,45,35,38,24,1,25,-6,15,17,-1,-10,-8,-14,10,30,21,52,53,39,26,10,5,28,44,52,28,31,26,44,4,36,REST
1.5125,15,51,63,48,55,40,10,-16,53,54,53,18,23,1,40,45,46,40,33,11,-6,13,37,-1,32,34,54,40,27,48,15,60,71,63,55,52,37,10,26,-12,9,-10,1,-11,-3,-24,15,35,29,56,53,31,10,-7,-11,35,49,50,12,10,43,50,6,36,REST
1.51875,10,41,59,49,60,40,3,-26,44,46,49,12,7,-18,21,31,38,31,18,-8,-26,20,45,10,38,39,55,45,35,48,5,56,65,59,50,47,35,11,23,-27,20,-49,14,-8,3,-30,27,38,29,50,49,25,4,-14,-22,45,51,46,12,7,53,51,-10,50,REST
1.525,5,35,47,34,45,30,-5,-30,37,36,36,12,5,-26,26,32,31,27,17,-5,-23,29,32,-1,34,34,33,30,19,36,-5,36,49,37,30,33,21,8,3,-26,11,-38,19,-1,-6,-23,29,36,31,44,47,34,16,3,1,37,48,49,32,32,54,58,-15,74,REST
1.53125,10,39,45,26,37,27,-2,-17,41,37,39,18,21,-12,27,39,35,36,33,15,-4,41,37,-4,37,40,36,31,24,25,-5,47,59,45,37,38,24,5,20,-16,17,-17,-6,-4,-27,-11,-4,28,28,49,56,49,31,15,7,13,32,45,31,17,40,54,-18,61,REST
1.5375,17,43,58,42,54,42,12,-10,46,48,51,41,38,10,19,35,40,48,49,33,11,55,53,3,43,46,55,42,24,34,6,61,71,65,55,54,38,7,-8,-2,-14,7,-35,0,-39,0,-16,19,22,49,61,57,45,27,21,5,24,53,44,33,22,44,-13,40,REST
1.54375,8,49,65,50,71,54,22,-29,39,49,54,49,45,20,12,30,41,46,52,39,20,33,52,12,36,39,60,43,28,20,0,58,69,70,59,53,34,17,-38,0,-30,0,-9,-30,-35,11,-6,19,20,50,58,61,49,31,26,16,29,53,55,51,17,46,8,43,REST
1.55,-23,15,46,39,62,41,7,-51,17,32,41,36,32,6,7,21,31,32,40,29,10,25,33,-7,17,19,39,26,18,8,-34,40,37,45,40,30,25,11,15,-9,-11,15,-6,-8,-20,1,2,20,16,47,52,56,45,31,21,18,34,49,55,45,22,46,17,40,REST
1.55625,-33,2,31,26,49,41,13,-48,14,30,35,34,33,18,14,27,30,33,44,34,20,32,41,5,23,24,40,28,21,16,-29,36,37,42,38,36,31,9,2,-3,3,23,6,9,-15,6,13,35,31,56,58,62,51,39,33,35,50,62,63,54,35,54,22,43,REST
1.5625,-10,16,31,20,40,39,15,-33,25,24,22,18,30,14,22,25,25,23,33,23,13,33,33,-6,17,20,25,21,12,20,-32,24,20,20,20,18,21,11,-22,-16,-3,-26,-6,2,-34,-7,-5,12,11,33,33,37,27,16,22,16,25,37,40,33,40,57,24,62,REST
1.56875,-24,-18,-10,-21,5,6,-11,-67,-12,-17,-23,-22,-7,-24,-27,-16,-15,-15,-7,-16,-22,-4,9,-25,-4,-3,-5,0,-1,-2,-54,-3,-12,-15,-8,-5,5,6,-24,-26,-22,-31,-36,-3,-48,-16,-24,-7,-10,9,4,7,-1,-8,-5,5,12,10,11,10,24,39,9,54,REST
1.575,-34,-24,-19,-30,-8,-4,-17,-55,-6,-17,-25,-22,-17,-25,-6,-3,-8,-12,-9,-15,-26,9,18,-20,12,13,-2,2,4,16,-17,-3,-1,-8,-5,3,2,1,-1,-26,-20,-33,-15,-4,-29,-22,2,17,8,23,15,10,3,-5,-4,26,31,17,12,16,17,24,-4,42,REST
1.58125,-24,-8,-6,-13,5,6,-14,-46,3,-4,-10,-5,-3,-22,8,4,3,-2,4,-3,-21,14,23,-25,17,20,3,2,-3,17,-17,8,7,2,4,7,10,4,-4,-18,8,-36,1,4,-23,-15,10,15,6,21,14,9,2,-6,-8,11,16,5,-5,-6,12,13,-20,31,REST
1.5875,-17,-3,5,1,23,23,6,-35,8,-2,2,2,9,-10,5,3,5,4,13,2,-15,-13,1,-31,-36,-31,5,11,7,-39,-50,13,7,13,15,16,29,26,-19,-2,-18,-2,-42,11,-40,-11,-3,21,17,36,31,25,16,4,-1,26,32,25,10,5,17,16,-27,30,REST
1.59375,-45,-2,18,19,42,39,18,-34,25,23,31,20,32,9,22,30,36,38,42,31,7,-83,-40,-75,-96,-88,-2,1,-25,-53,-64,9,9,18,18,18,21,1,-26,-11,-20,8,2,-7,-14,0,23,46,42,63,60,51,38,24,17,50,60,53,38,32,37,39,-8,48,REST
1.6,-3,18,25,17,40,30,7,-23,29,26,27,14,24,1,32,32,33,32,33,21,-2,23,36,-11,53,50,30,27,11,76,32,35,32,32,31,36,33,-5,46,-8,37,-13,36,-22,20,-6,25,40,27,51,46,40,28,15,7,41,52,44,31,29,49,53,12,63,REST
1.60625,37,34,32,14,38,31,13,-10,31,23,16,13,20,8,39,35,28,27,32,19,2,97,79,34,96,97,46,45,44,86,64,44,50,48,40,50,43,22,58,14,53,32,45,-29,33,-1,51,62,45,65,60,56,42,29,18,73,76,65,50,48,65,70,29,79,REST
1.6125,44,46,48,21,39,33,16,15,53,42,29,22,23,17,70,56,45,43,38,24,7,72,61,16,82,80,38,33,23,86,56,38,52,46,31,40,27,9,63,-5,72,-9,67,18,48,0,54,61,40,62,64,63,45,33,23,57,63,64,58,48,69,77,40,80,REST
1.61875,61,55,42,15,26,23,4,23,51,40,33,23,22,3,49,48,44,45,43,32,12,67,75,32,99,96,45,42,32,100,67,53,58,53,39,49,37,8,63,-6,84,-11,54,21,42,17,40,52,38,69,77,83,71,56,49,54,67,82,81,75,69,90,62,91,REST
1.625,62,61,56,41,53,47,27,25,59,55,56,43,45,29,54,61,60,64,64,53,34,102,99,61,124,120,74,66,58,107,79,67,76,81,63,65,54,32,96,7,82,11,52,5,36,1,44,60,48,72,77,72,55,36,24,52,66,70,51,27,64,83,45,69,REST
1.63125,60,49,61,52,55,39,12,14,54,55,54,30,23,5,58,58,54,56,49,27,4,101,96,53,95,92,71,53,37,84,73,57,64,73,53,48,26,6,69,-20,57,-25,45,-3,32,-11,51,64,55,72,69,56,36,21,8,56,77,67,39,23,63,66,14,40,REST
1.6375,41,41,46,37,40,21,-8,8,52,50,51,24,13,-12,59,63,54,52,44,24,1,70,83,46,65,65,60,47,33,59,37,48,55,68,47,44,28,-1,51,-17,50,-2,36,-20,22,-3,41,74,65,93,84,72,52,39,24,69,92,90,61,56,76,72,21,53,REST
1.64375,45,52,62,54,60,42,18,22,72,68,68,49,39,19,76,84,73,69,61,43,20,100,104,60,107,104,76,58,48,89,55,57,71,79,56,54,38,10,69,4,49,23,60,-26,38,-6,52,79,62,91,82,61,40,27,17,71,86,80,49,46,89,88,42,74,REST
1.65,33,31,41,28,33,16,-4,-8,49,39,36,18,5,-16,54,56,46,40,26,6,-18,65,62,15,60,60,38,18,9,55,39,28,36,40,16,17,-1,-20,29,-37,33,-52,40,2,21,-15,42,61,47,66,57,34,16,8,13,58,69,59,33,42,83,86,51,72,REST
1.65625,16,22,29,14,14,3,-27,-9,47,35,30,17,-8,-35,46,49,40,39,24,2,-24,63,62,17,61,59,37,22,11,58,41,29,44,47,21,25,1,-21,40,-43,44,-49,40,-5,12,-15,43,57,43,66,57,39,20,12,13,65,68,59,39,41,70,78,50,63,REST
1.6625,32,41,50,36,33,19,-10,3,57,46,40,26,4,-23,50,52,44,43,30,7,-18,76,83,41,93,92,65,43,30,75,65,50,68,73,48,44,21,-7,52,-27,49,-15,42,-13,15,-16,46,57,40,61,58,42,26,14,10,68,65,58,39,29,63,65,33,31,REST
1.66875,42,53,63,54,56,39,8,4,68,61,60,44,25,2,56,61,59,59,47,27,7,89,87,34,102,102,73,47,27,82,71,68,80,87,60,55,31,-6,63,-11,62,2,34,-6,29,2,53,70,59,83,79,69,52,40,32,73,79,83,67,52,73,76,43,28,REST
1.675,49,68,79,67,65,44,10,20,89,82,76,59,39,11,68,77,74,71,61,39,16,87,73,18,86,85,56,29,13,73,47,44,62,68,40,37,9,-26,54,-16,68,-14,25,2,5,-1,35,56,46,70,64,57,41,28,17,56,63,66,56,46,79,91,62,44,REST
1.68125,32,50,56,37,39,21,-5,16,72,55,44,38,23,-1,63,63,50,42,37,17,5,64,69,21,65,65,42,23,17,61,41,41,49,53,30,29,8,-12,57,-8,43,10,-1,-34,0,1,31,49,39,54,48,41,30,22,15,34,43,39,43,43,62,81,57,36,REST
1.6875,41,50,49,25,34,22,3,16,64,41,29,30,17,3,43,46,31,25,19,5,-1,54,65,12,59,59,29,14,13,55,29,30,41,40,16,16,2,-3,38,-20,7,-12,14,-7,4,-12,11,18,12,27,24,27,17,16,16,2,12,23,36,47,24,53,36,17,REST
1.69375,16,36,42,21,26,16,-6,-13,49,38,31,29,15,-4,23,36,25,27,23,12,1,61,67,20,62,63,35,22,20,45,20,34,49,51,25,28,16,0,26,-13,29,15,33,14,-2,-7,5,23,22,44,41,49,40,35,34,18,26,48,58,70,11,50,37,23,REST
1.7,22,43,51,37,44,34,10,1,55,40,38,39,25,7,37,42,32,27,33,20,7,44,63,29,53,55,39,29,23,54,18,45,45,51,32,30,9,-24,40,-18,45,3,15,-10,10,-2,20,37,28,54,45,54,42,34,32,29,38,54,57,52,22,57,35,20,REST
1.70625,24,41,45,34,38,24,-12,0,55,40,37,40,23,-3,40,39,35,30,40,23,7,42,40,-12,50,51,20,-3,-14,41,3,18,29,31,11,8,-24,-50,25,-44,28,-53,27,-13,3,6,22,31,24,53,48,62,49,39,34,33,40,71,71,73,46,77,46,35,REST
1.7125,3,26,34,21,22,8,-24,-23,37,34,40,40,23,-9,22,27,31,37,50,32,13,46,36,-15,48,48,9,-11,-19,33,-9,10,17,21,-3,-2,-30,-45,15,-38,19,-15,27,-17,-10,7,16,26,26,59,61,78,64,53,51,30,39,84,91,95,63,108,81,67,REST
1.71875,4,16,21,5,14,0,-27,-23,26,25,36,43,21,-6,18,22,27,34,44,27,11,15,21,-23,29,28,-7,-21,-29,35,1,4,4,7,-10,-10,-37,-51,29,-41,32,-12,28,-38,-3,-3,19,28,25,59,61,72,57,43,40,24,39,85,82,76,62,122,100,84,REST
1.725,18,30,24,6,18,6,-25,-1,49,39,42,43,23,-3,41,43,41,42,46,26,10,26,31,-11,35,35,3,-14,-21,47,9,11,16,17,1,4,-28,-48,52,-44,59,-29,41,-1,11,-1,40,43,38,70,67,73,58,41,37,41,54,97,82,82,64,133,102,96,REST
1.73125,29,37,37,16,21,6,-28,14,58,48,48,37,18,-11,46,46,45,42,43,23,6,17,25,-23,24,26,-1,-21,-29,34,-17,3,8,9,-10,-13,-40,-64,24,-56,19,-31,10,-4,-14,3,15,29,26,50,48,56,45,37,39,25,34,65,68,72,60,119,80,77,REST
1.7375,-10,2,11,-3,2,-11,-40,-27,23,16,20,16,1,-22,14,14,12,10,18,6,-4,-1,-3,-49,-7,-6,-23,-39,-49,-2,-46,-17,-15,-8,-24,-27,-50,-76,-14,-55,-26,-4,-3,-23,-49,-15,-17,-5,-8,8,11,25,21,17,13,-10,-1,22,33,37,34,78,35,42,REST
1.74375,-20,11,15,7,13,5,-23,-27,26,23,32,35,13,-6,3,14,9,10,20,8,-2,10,13,-23,15,16,-3,-13,-20,19,-35,3,8,15,-3,-2,-20,-43,11,-35,22,-10,10,-14,-20,-17,-18,-14,-20,-7,-2,11,7,3,0,-19,-19,-3,11,15,2,35,-3,7,REST
1.75,-3,15,21,7,6,-1,-24,-26,13,10,18,24,-5,-24,-18,-8,-14,-19,-10,-22,-27,12,14,-26,13,17,-12,-22,-25,10,-46,-12,-9,-7,-23,-26,-41,-54,-12,-62,-16,-50,-16,-18,-48,-39,-47,-48,-62,-48,-45,-30,-27,-25,-20,-49,-56,-46,-20,-11,-31,-1,-30,-16,REST
1.75625,-36,-26,-21,-39,-31,-40,-58,-61,-20,-32,-27,-22,-37,-49,-37,-36,-46,-51,-40,-48,-46,-25,-14,-44,-11,-7,-31,-47,-47,-16,-48,-29,-18,-20,-39,-36,-60,-70,-41,-68,-32,-43,-12,-44,-52,-45,-44,-47,-56,-44,-43,-24,-17,-16,-10,-41,-47,-37,-7,9,-41,-8,-32,-10,REST
1.7625,-21,0,-2,-19,-14,-27,-48,-33,2,-6,-5,-4,-15,-32,-10,-14,-21,-24,-13,-21,-22,3,7,-32,16,15,-17,-34,-30,20,-23,-17,-6,-5,-27,-29,-44,-48,20,-53,17,-45,11,-33,-20,-24,-21,-24,-32,-22,-18,-1,3,3,11,-25,-30,-15,14,27,-23,14,-8,19,REST
1.76875,-19,-24,-17,-20,-20,-33,-48,-52,-15,-21,-13,-11,-18,-37,-18,-26,-29,-31,-18,-24,-25,-20,-14,-52,-21,-19,-42,-51,-45,-5,-54,-37,-39,-30,-46,-52,-55,-61,-4,-62,2,-35,-9,-14,-42,-36,-39,-38,-45,-28,-25,-6,-4,-6,-3,-34,-36,-12,15,17,-5,33,14,34,REST
1.775,-44,-41,-36,-34,-31,-37,-44,-65,-30,-35,-29,-15,-21,-32,-31,-34,-37,-36,-21,-25,-25,-11,-14,-45,-19,-18,-33,-48,-41,-10,-61,-37,-34,-20,-35,-41,-43,-51,-16,-49,-5,-17,-7,-20,-56,-33,-41,-37,-38,-19,-20,4,2,2,1,-26,-25,3,22,29,3,40,26,30,REST
1.78125,-32,-25,-16,-17,-16,-22,-34,-40,-16,-16,-11,1,-13,-24,-17,-23,-26,-25,-16,-16,-19,-11,-7,-34,-6,-4,-16,-33,-29,3,-42,-17,-18,-2,-20,-27,-30,-43,-5,-44,-15,-23,-18,-19,-44,-21,-22,-29,-38,-18,-23,-3,-4,1,4,-24,-26,-10,15,25,1,34,25,22,REST
1.7875,-22,-30,-21,-20,-12,-21,-30,-51,-26,-31,-23,-3,-16,-23,-25,-34,-40,-43,-27,-30,-20,-12,-13,-53,-13,-11,-25,-44,-44,-2,-35,-23,-25,-12,-27,-33,-39,-55,-12,-40,-24,-3,1,-17,-39,-26,-34,-37,-54,-33,-35,-21,-20,-14,-10,-25,-33,-27,-2,3,-6,17,16,14,REST
1.79375,-50,-51,-40,-36,-22,-26,-32,-77,-42,-41,-32,-9,-16,-21,-37,-45,-46,-48,-29,-31,-22,-37,-26,-62,-35,-32,-48,-65,-55,-16,-77,-51,-51,-37,-52,-55,-55,-73,-31,-48,-13,-38,8,-8,-45,-27,-44,-44,-54,-39,-40,-27,-24,-16,-10,-33,-36,-33,-9,3,-18,0,5,2,REST
1.8,-66,-61,-51,-52,-39,-44,-46,-74,-41,-43,-35,-17,-24,-31,-33,-45,-50,-50,-35,-35,-29,-45,-30,-58,-29,-29,-59,-68,-50,-17,-87,-55,-60,-44,-60,-65,-54,-81,-35,-52,-19,-25,-11,-14,-45,-26,-37,-36,-55,-34,-38,-21,-15,-9,-3,-27,-29,-26,1,11,-23,-4,1,1,REST
1.80625,-59,-53,-44,-40,-25,-31,-34,-63,-32,-40,-30,-5,-12,-12,-31,-41,-49,-45,-26,-24,-15,-18,-25,-59,-21,-20,-47,-54,-42,-14,-65,-44,-43,-28,-43,-48,-42,-72,-20,-36,-2,8,-16,-7,-55,-21,-48,-43,-59,-31,-31,-11,-8,-3,3,-25,-27,-16,11,18,-16,10,15,23,REST
1.8125,-37,-40,-34,-30,-14,-20,-23,-45,-20,-32,-25,-2,-2,2,-28,-28,-35,-35,-18,-14,-4,-7,-15,-52,-8,-8,-33,-42,-40,-2,-41,-31,-32,-21,-33,-37,-34,-72,4,-37,-3,-25,-10,-16,-42,-22,-37,-28,-43,-25,-25,-8,-7,-3,0,-20,-23,-21,6,7,-5,18,21,36,REST
1.81875,-29,-30,-28,-32,-18,-29,-35,-43,-17,-29,-24,-15,-14,-26,-21,-29,-37,-41,-29,-26,-22,-32,-14,-45,-17,-15,-29,-43,-41,-4,-33,-22,-21,-11,-29,-30,-35,-76,-4,-48,-14,-51,1,-33,-35,-20,-33,-29,-45,-27,-29,-16,-12,-8,-6,-19,-22,-26,-3,3,-8,9,7,21,REST
1.825,-20,-11,-5,-10,3,-15,-27,-35,-12,-16,-8,6,-3,-21,-13,-20,-29,-32,-20,-15,-15,-20,-12,-40,4,7,-10,-26,-27,17,-22,-10,-4,7,-10,-13,-17,-60,3,-30,6,-25,2,-20,-41,-16,-35,-31,-45,-22,-26,-13,-9,-8,-7,-18,-21,-20,-3,5,-9,3,-7,14,REST
1.83125,-24,-22,-16,-12,-5,-15,-21,-39,-20,-24,-18,3,-5,-18,-24,-27,-33,-37,-21,-18,-19,-37,-29,-58,-29,-23,-33,-45,-48,-2,-44,-25,-33,-17,-27,-35,-32,-67,-14,-39,-25,-11,-7,-6,-38,-16,-31,-33,-45,-25,-25,-10,-10,-8,-8,-26,-25,-16,-1,7,-12,5,-6,11,REST
1.8375,-48,-41,-27,-12,-5,-16,-25,-60,-32,-26,-7,5,-5,-13,-31,-33,-35,-35,-20,-20,-20,-29,-23,-51,-35,-33,-33,-42,-44,-15,-56,-22,-33,-7,-15,-27,-25,-61,-38,-33,-15,-1,8,-12,-34,-29,-36,-41,-56,-35,-34,-21,-23,-20,-15,-36,-36,-32,-21,-9,-16,3,-5,5,REST
1.84375,-53,-36,-24,-14,2,-10,-20,-62,-37,-37,-15,-7,-10,-17,-45,-53,-58,-55,-39,-39,-32,-26,-14,-49,-28,-26,-27,-34,-31,-20,-81,-29,-37,-8,-16,-30,-27,-62,-30,-41,-17,-32,-18,-17,-67,-37,-78,-74,-88,-68,-63,-58,-57,-52,-46,-72,-74,-70,-65,-63,-44,-30,-46,-30,REST
1.85,-63,-58,-33,-23,-14,-26,-33,-82,-61,-53,-34,-15,-32,-34,-68,-77,-77,-71,-56,-57,-48,-28,-20,-54,-17,-13,-22,-34,-33,-14,-75,-22,-27,-1,-13,-26,-24,-65,-9,-47,-31,-29,-31,-24,-76,-34,-87,-84,-89,-73,-64,-60,-53,-49,-36,-83,-84,-72,-61,-54,-71,-59,-84,-48,REST
1.85625,-43,-36,-12,2,8,-3,-15,-73,-50,-37,-23,4,-16,-23,-65,-72,-66,-58,-40,-41,-36,4,2,-31,-10,-4,1,-17,-18,-7,-56,-8,-8,17,6,-7,-10,-56,-21,-39,-30,-29,-21,-23,-83,-40,-87,-85,-89,-71,-62,-51,-44,-44,-32,-83,-82,-67,-49,-45,-78,-59,-85,-36,REST
1.8625,-49,-35,-15,-12,-2,-11,-23,-69,-53,-42,-30,-7,-24,-33,-58,-71,-65,-59,-43,-47,-45,-55,-26,-52,-57,-50,-26,-33,-27,-42,-82,-26,-29,-6,-14,-23,-12,-53,-21,-41,-37,-34,-41,-34,-92,-37,-75,-69,-72,-56,-50,-43,-36,-35,-30,-61,-59,-48,-35,-31,-61,-36,-52,-11,REST
1.86875,-35,-29,-10,-12,4,-5,-10,-46,-34,-31,-22,2,-18,-22,-48,-56,-47,-48,-34,-39,-32,-43,-6,-24,-30,-29,-14,-13,-4,-16,-73,-14,-24,3,-3,-15,-2,-43,-18,-32,-52,-23,-25,-29,-53,-21,-51,-54,-60,-44,-42,-34,-32,-25,-13,-39,-48,-40,-26,-6,-29,-3,-15,28,REST
1.875,-58,-47,-30,-24,-8,-19,-28,-83,-52,-52,-43,-26,-32,-32,-70,-77,-67,-71,-53,-54,-40,-61,-34,-73,-47,-44,-44,-49,-51,-28,-95,-49,-53,-28,-34,-41,-41,-81,-50,-60,-34,-40,-28,-11,-89,-36,-83,-85,-92,-79,-78,-64,-58,-43,-29,-80,-83,-74,-49,-25,-31,-10,-15,25,REST
1.88125,-69,-55,-46,-46,-35,-44,-49,-79,-59,-63,-58,-39,-45,-40,-68,-75,-76,-83,-58,-56,-40,-43,-24,-59,-35,-32,-31,-43,-37,-16,-69,-34,-35,-13,-25,-30,-30,-69,-21,-51,-35,-10,-27,-23,-66,-19,-50,-53,-59,-45,-47,-27,-17,-4,-1,-49,-45,-37,-5,15,-40,-21,-15,17,REST
1.8875,-35,-20,-8,-11,2,-6,-16,-46,-16,-21,-11,5,1,5,-26,-31,-30,-40,-9,-6,5,-18,-11,-42,-12,-11,-9,-29,-25,-7,-47,-15,-12,11,-2,-13,-17,-55,-15,-33,-22,15,-1,-26,-41,-10,-39,-32,-37,-23,-26,-7,2,10,10,-32,-30,-24,8,23,-30,-15,-6,15,REST
1.89375,-44,-25,-17,-23,-1,-7,-18,-52,-20,-27,-19,-4,-4,-10,-29,-30,-36,-46,-18,-17,-10,-23,-26,-52,-21,-20,-19,-37,-33,-14,-58,-27,-24,-4,-14,-18,-23,-61,-20,-47,-16,-29,-8,-14,-51,-26,-51,-34,-35,-26,-26,-13,-8,-4,-7,-37,-34,-22,0,13,-18,-4,0,20,REST
1.9,-44,-35,-33,-37,-16,-19,-27,-44,-21,-33,-27,-5,-14,-25,-29,-26,-36,-48,-23,-22,-23,-48,-31,-45,-44,-43,-37,-38,-21,-24,-68,-36,-43,-25,-31,-35,-26,-59,-20,-53,-22,-34,-18,-23,-45,-26,-43,-30,-27,-24,-19,-10,-7,-5,-13,-34,-27,-16,-1,1,-17,-3,-7,10,REST
1.90625,-41,-34,-32,-38,-16,-19,-29,-36,-13,-25,-16,-6,-14,-20,-18,-13,-20,-35,-13,-17,-19,-60,-22,-48,-41,-37,-31,-32,-15,-12,-62,-33,-26,-11,-22,-24,-22,-49,-7,-42,-4,-26,11,-56,-30,-26,-25,-20,-19,-18,-15,-11,-10,-13,-17,-17,-15,-17,-11,-17,-13,-12,-23,-9,REST
1.9125,-31,-23,-17,-25,-14,-18,-27,-37,-17,-25,-17,-10,-16,-24,-24,-21,-27,-37,-18,-25,-25,-23,-6,-39,-4,-3,-18,-25,-10,-10,-62,-32,-16,-6,-18,-25,-24,-45,-18,-47,-7,-52,-4,-13,-43,-38,-40,-36,-38,-31,-27,-21,-22,-22,-22,-29,-25,-30,-20,-20,-16,-16,-31,-8,REST
1.91875,-40,-33,-22,-31,-21,-25,-35,-48,-30,-36,-26,-9,-18,-28,-37,-37,-44,-48,-27,-31,-28,-26,-29,-55,-21,-18,-27,-39,-26,-14,-46,-33,-20,-9,-23,-30,-30,-52,-10,-51,-8,-37,-5,-16,-38,-34,-31,-30,-32,-34,-35,-33,-35,-31,-27,-16,-14,-36,-35,-35,-17,-17,-36,-6,REST
1.925,-21,-19,-13,-29,-16,-22,-25,-22,-17,-32,-31,-18,-22,-23,-8,-32,-44,-56,-40,-48,-38,-13,-3,-25,-20,-18,-5,-16,1,8,-33,-23,-7,7,-7,-12,-2,-21,17,-25,2,6,32,-33,-22,-38,-7,-16,-30,-38,-44,-50,-53,-50,-37,-2,-10,-37,-47,-47,-10,-13,-41,-3,REST
1.93125,-4,-13,-13,-25,-10,-7,0,-12,-16,-32,-31,-15,-21,-16,-7,-33,-41,-47,-38,-46,-34,7,38,19,5,8,25,24,45,17,-20,10,16,31,22,14,31,16,33,-7,25,6,48,-11,21,-12,24,-3,-15,-21,-21,-20,-25,-20,1,14,4,-12,-14,-2,7,4,-23,18,REST
1.9375,6,5,13,6,25,24,15,-13,-5,-10,3,17,8,2,6,-17,-17,-18,-9,-19,-8,30,50,27,30,33,44,34,52,34,3,25,37,47,36,29,35,13,37,-14,52,-34,81,5,37,2,36,17,2,-3,-5,-2,-5,4,22,44,24,4,13,45,38,36,23,72,REST
1.94375,8,5,4,-7,9,6,-3,3,4,-16,-11,7,-8,-10,26,-5,-16,-33,-21,-30,-15,23,23,-4,37,39,14,4,27,41,4,-3,12,13,1,4,4,-21,42,-26,56,-18,97,-4,48,-3,56,34,12,-2,-9,-11,-10,3,25,62,36,6,12,49,61,57,56,112,REST
1.95,21,10,-6,-25,-11,-9,-11,21,16,-8,-14,9,-6,0,46,17,-2,-25,-13,-20,-3,31,25,-4,43,43,10,0,18,53,21,10,22,21,5,8,7,-21,70,-19,76,22,121,-7,79,21,90,61,42,25,17,17,18,28,46,81,55,30,37,64,76,72,68,124,REST
1.95625,39,32,20,5,16,18,12,35,36,15,12,34,24,30,58,33,18,-5,11,10,22,42,27,-8,60,58,20,5,12,60,27,18,34,30,14,17,15,-11,62,-10,71,16,87,-28,51,15,61,42,29,15,8,17,21,27,39,45,30,17,36,60,69,71,65,106,REST
1.9625,23,15,-1,-18,-2,6,5,10,13,-13,-14,15,10,15,23,-1,-13,-33,-10,-10,3,-15,-1,-24,7,7,-20,-18,2,18,-13,-15,-18,-21,-23,-19,-4,-31,14,-29,26,0,25,-16,0,-8,7,-5,-16,-24,-27,-12,-7,-6,3,-11,-20,-23,3,11,23,34,32,47,REST
1.96875,-27,-41,-58,-76,-43,-26,-27,-30,-32,-59,-55,-15,-20,-19,-18,-39,-51,-64,-35,-33,-21,-53,-25,-40,-44,-43,-51,-40,-14,-24,-82,-40,-51,-48,-47,-42,-23,-53,-12,-48,5,-14,-20,-14,-30,-11,-26,-27,-34,-36,-34,-21,-15,-17,-10,-22,-31,-30,-13,-16,-24,-7,-13,4,REST
1.975,-29,-35,-50,-75,-41,-24,-33,-12,-16,-50,-48,-11,-12,-15,-10,-22,-39,-54,-23,-22,-13,-31,-24,-52,-23,-22,-49,-51,-31,-15,-79,-46,-36,-41,-47,-42,-41,-73,5,-56,-8,-43,-20,-13,-29,-11,-23,-25,-30,-31,-35,-24,-17,-20,-14,-35,-33,-34,-25,-33,-41,-23,-41,1,REST
1.98125,-13,-24,-41,-68,-39,-26,-41,-16,-10,-41,-44,-6,-10,-19,-11,-22,-39,-52,-26,-20,-15,-46,-34,-64,-27,-24,-50,-60,-40,-11,-71,-39,-31,-35,-45,-42,-38,-73,1,-55,-17,-40,-1,-17,-26,-15,-32,-34,-34,-41,-39,-30,-24,-29,-29,-57,-51,-44,-36,-47,-53,-38,-60,-29,REST
1.9875,-18,-22,-33,-51,-27,-18,-28,-21,-12,-36,-33,2,-7,-11,-16,-26,-36,-44,-21,-17,-11,-27,-22,-45,-1,-1,-22,-35,-6,13,-46,-11,-4,-4,-13,-11,-4,-34,12,-33,7,0,11,-15,-15,-10,-31,-22,-17,-18,-17,-14,-8,-13,-17,-25,-29,-19,-19,-23,-44,-33,-53,-33,REST
1.99375,20,17,6,-6,11,16,5,7,14,-1,-2,36,16,20,-3,3,-5,-16,2,1,8,34,21,-13,39,40,13,-1,15,29,-16,17,26,27,18,17,17,-12,1,-21,4,8,15,-21,-6,-7,-16,-9,-5,-6,-10,-11,-8,-7,-8,-17,-24,-17,-13,-10,-23,-17,-34,-12,REST
2.0,13,17,7,-11,5,7,-6,0,12,-7,-12,23,-5,-5,-4,-4,-13,-29,-17,-18,-12,3,11,-18,15,17,1,-10,7,15,-34,5,12,15,4,-1,1,-29,16,-38,4,-17,21,-17,-10,-13,-12,-14,-10,-18,-21,-22,-20,-16,-14,-25,-31,-30,-24,-22,-16,-13,-23,-2,REST
4.2,-24,-8,-4,-26,-22,-29,-15,-8,13,12,12,19,-12,-12,18,20,14,11,8,-8,-20,-103,-98,-125,-84,-79,-60,-75,-125,-30,-57,-23,-34,-44,-50,-45,-21,3,-26,-29,-23,15,17,-1,1,-13,25,32,22,32,25,16,-1,-4,-11,44,39,23,11,-6,26,11,-12,-9,RIGHT
4.20625,-28,-11,-12,-35,-27,-33,-13,-10,2,2,1,16,-18,-7,0,9,4,-3,-2,-16,-22,-136,-108,-132,-84,-82,-67,-81,-131,-39,-49,-35,-42,-53,-60,-53,-32,-1,-21,-35,-5,-39,15,-2,2,-16,20,12,-5,0,-6,-13,-29,-25,-25,13,7,-13,-15,-23,17,4,-20,-2,RIGHT
4.2125,-33,-29,-37,-65,-58,-60,-31,-26,-22,-27,-32,-15,-52,-31,-20,-20,-30,-41,-34,-48,-45,-140,-118,-132,-98,-94,-74,-81,-129,-53,-51,-42,-54,-63,-69,-62,-29,0,-37,-35,-29,-13,1,-10,-22,-18,-15,-13,-26,-21,-24,-29,-38,-31,-26,-12,-14,-29,-27,-25,-16,-18,-32,-5,RIGHT
4.21875,-36,-22,-23,-51,-41,-43,-14,-27,-20,-15,-13,3,-35,-14,-20,-20,-24,-26,-17,-32,-27,-93,-76,-97,-73,-67,-34,-44,-91,-33,-39,0,-9,-19,-28,-24,4,21,-22,-16,-16,3,10,-20,-15,-11,-15,-8,-14,-8,-11,-14,-20,-15,-12,-14,-14,-27,-17,-14,-40,-35,-32,-13,RIGHT
4.225,-16,12,16,-12,-3,-14,2,-8,-2,11,12,23,-17,-8,-13,-6,-9,-9,-6,-22,-25,-100,-60,-84,-74,-67,-21,-35,-88,-24,-48,4,3,-7,-15,-13,-2,11,-13,-32,2,-50,8,26,-24,-40,-24,-15,-18,-11,-9,-12,-18,-17,-20,-24,-23,-23,-6,-2,-49,-40,-25,-22,RIGHT
4.23125,-20,0,2,-26,-10,-17,-5,-5,-2,8,11,20,-9,-6,-12,4,-2,1,8,-9,-14,-108,-77,-102,-77,-72,-32,-41,-97,-27,-43,4,-15,-18,-20,-16,10,18,-8,-17,-11,2,-6,16,-26,-1,-10,5,3,20,21,18,12,8,-2,-2,2,6,18,18,-31,-21,-15,-22,RIGHT
4.2375,-14,-4,1,-22,-2,-3,15,0,1,10,16,29,7,15,-4,8,3,2,12,-1,-4,-92,-77,-99,-61,-56,-29,-38,-91,-21,-35,3,-13,-14,-17,-14,11,26,-22,-9,-47,10,-3,6,-25,-6,-25,-12,-16,2,4,-1,-11,-12,-21,-31,-22,-14,-11,-12,-32,-23,-32,-45,RIGHT
4.24375,-27,-5,5,-10,2,-4,10,-26,-10,8,14,24,-1,5,-19,-4,-4,-3,4,-11,-15,-101,-71,-90,-59,-53,-16,-34,-84,-17,-29,9,3,2,-4,-5,8,19,-26,-12,-18,15,5,8,-21,-17,-24,-6,-4,16,14,8,-5,-11,-17,-14,-2,8,0,-3,-30,-15,-37,-38,RIGHT
4.25,-15,14,20,3,9,5,14,-11,8,25,30,35,10,15,-8,15,13,17,20,2,-7,-111,-71,-84,-67,-60,-6,-24,-78,-8,-21,23,11,11,7,2,19,21,-12,-5,-13,49,26,-6,-8,-18,-8,3,3,22,17,7,-8,-15,-28,-7,-1,-1,-14,-31,-22,-7,-41,-28,RIGHT
4.25625,-8,5,17,3,7,4,18,-17,3,16,20,27,5,15,-15,2,0,-1,3,-10,-16,-86,-63,-88,-54,-50,1,-22,-75,-3,-20,20,15,16,11,6,25,34,-11,-8,-14,-10,18,-32,-21,-34,-25,-13,-17,-1,-8,-20,-30,-33,-41,-18,-9,-21,-30,-42,-23,-16,-56,-32,RIGHT
4.2625,-7,10,20,-1,4,2,12,-11,7,9,4,11,-5,-2,-6,6,-4,-11,-8,-16,-22,-78,-52,-71,-48,-43,-1,-16,-64,-4,-26,16,12,7,1,-2,22,38,-16,-17,-17,-40,10,2,-17,-22,-8,0,-7,4,-9,-17,-27,-25,-29,-13,0,-18,-25,-34,-23,-20,-60,-33,RIGHT
4.26875,-19,-3,-2,-32,-23,-22,-7,-20,-5,-10,-20,-10,-16,-12,-16,-8,-14,-24,-20,-23,-26,-116,-87,-103,-73,-69,-33,-47,-96,-32,-43,-8,-7,-20,-30,-28,-5,15,-22,-31,-11,-12,-3,8,-28,-25,-28,-19,-24,-15,-19,-26,-36,-33,-35,-33,-24,-35,-37,-45,-36,-32,-67,-54,RIGHT
4.275,-17,-10,-6,-30,-21,-23,-7,-18,-14,-13,-17,-11,-15,-4,-30,-16,-21,-24,-18,-26,-26,-108,-79,-95,-69,-63,-22,-42,-93,-21,-44,-3,2,0,-14,-16,0,18,-12,-29,-18,-13,-12,-5,-26,-40,-37,-21,-28,-23,-27,-41,-50,-48,-52,-28,-23,-48,-52,-65,-50,-50,-80,-73,RIGHT
4.28125,-16,-1,4,-16,-9,-18,-6,-11,-4,-7,-11,-8,-18,-16,-17,-14,-22,-24,-23,-34,-35,-96,-64,-83,-64,-57,-8,-30,-80,-25,-56,9,8,8,-4,-12,5,16,-26,-26,-13,-16,12,2,-23,-37,-32,-24,-31,-32,-31,-43,-49,-45,-49,-33,-32,-56,-50,-58,-54,-55,-78,-73,RIGHT
4.2875,-15,3,10,-14,-4,-12,1,-10,-2,-7,-15,-7,-10,-5,-24,-23,-28,-25,-20,-25,-22,-85,-57,-75,-63,-56,8,-23,-72,-15,-33,22,26,23,11,4,20,24,-4,-8,-4,17,11,4,-25,-27,-36,-35,-43,-39,-37,-39,-41,-31,-38,-49,-48,-64,-43,-46,-63,-61,-67,-77,RIGHT
4.29375,5,12,21,-4,5,-5,9,-9,-6,-12,-16,-5,-8,1,-32,-36,-39,-36,-26,-33,-24,-72,-49,-68,-46,-40,11,-22,-71,-5,-23,17,25,24,8,3,15,18,-40,-12,-37,-7,23,-3,-31,-29,-35,-40,-50,-44,-49,-48,-50,-41,-46,-35,-40,-59,-50,-62,-67,-67,-69,-85,RIGHT
4.3,-16,-4,3,-21,-14,-21,-3,-31,-31,-33,-32,-24,-26,-16,-41,-44,-46,-49,-39,-46,-37,-80,-52,-73,-43,-39,0,-29,-72,3,-23,13,12,12,-2,-8,6,16,-7,-10,-16,24,25,-37,-19,-32,-19,-28,-41,-35,-43,-44,-49,-43,-47,-25,-27,-50,-47,-61,-52,-60,-71,-79,RIGHT
4.30625,-13,-12,1,-17,-10,-14,5,-22,-29,-27,-27,-21,-19,-2,-26,-31,-37,-39,-32,-37,-30,-82,-51,-78,-39,-33,4,-29,-77,-3,-21,14,21,19,5,-2,8,22,-5,-3,-10,22,29,-15,-14,-42,-17,-23,-35,-33,-41,-48,-56,-54,-62,-25,-27,-54,-61,-80,-37,-55,-80,-73,RIGHT
4.3125,-13,1,8,-6,0,-11,2,-21,-15,-17,-21,-8,-15,-8,-27,-26,-35,-39,-33,-40,-39,-81,-52,-77,-56,-50,3,-28,-80,-21,-35,14,19,17,6,-3,7,20,-25,-21,-21,-48,14,6,-29,-43,-29,-25,-32,-38,-46,-55,-62,-60,-62,-24,-31,-61,-66,-82,-37,-54,-89,-72,RIGHT
4.31875,-25,-2,9,-8,2,-8,-1,-27,-16,-14,-17,-14,-23,-25,-36,-31,-37,-45,-41,-50,-54,-81,-60,-85,-71,-64,-4,-31,-89,-35,-41,17,15,16,8,-3,5,7,-37,-25,-25,-44,-7,-1,-27,-46,-30,-29,-42,-49,-56,-67,-73,-71,-70,-35,-42,-78,-77,-93,-52,-65,-98,-82,RIGHT
4.325,-24,2,19,9,11,-5,-4,-25,-14,-7,-8,-20,-29,-36,-36,-32,-36,-49,-45,-57,-62,-97,-66,-89,-69,-61,-2,-33,-90,-26,-50,10,22,22,8,-3,3,7,-27,-27,-22,-29,0,-4,-53,-49,-52,-43,-58,-61,-68,-73,-77,-73,-69,-59,-60,-91,-81,-93,-72,-85,-110,-105,RIGHT
4.33125,-17,-2,7,1,-4,-20,-12,-25,-27,-19,-25,-25,-35,-32,-43,-39,-45,-53,-46,-58,-56,-115,-77,-95,-72,-67,-16,-41,-97,-28,-58,2,6,1,-12,-18,-1,16,-18,-24,-37,-6,-7,-8,-40,-33,-46,-40,-49,-51,-55,-59,-62,-58,-53,-53,-52,-76,-64,-80,-79,-89,-112,-111,RIGHT
4.3375,-25,-7,-3,-26,-23,-30,-12,-25,-19,-12,-18,-26,-31,-23,-25,-19,-29,-33,-30,-43,-42,-114,-84,-103,-78,-74,-31,-48,-101,-42,-67,-7,-6,-15,-25,-28,-10,9,-38,-30,-42,-20,3,-3,-32,-23,-35,-29,-34,-30,-30,-37,-44,-42,-36,-45,-42,-55,-47,-59,-65,-69,-97,-84,RIGHT
4.34375,-38,-15,-9,-37,-28,-35,-24,-34,-22,-12,-16,-18,-23,-27,-42,-30,-31,-32,-24,-34,-37,-130,-99,-116,-95,-89,-49,-65,-108,-46,-91,-30,-25,-31,-41,-45,-28,-11,-49,-40,-40,-33,-14,-5,-49,-35,-55,-54,-58,-48,-46,-43,-51,-50,-48,-64,-63,-62,-50,-61,-59,-49,-82,-60,RIGHT
4.35,-41,-32,-30,-42,-36,-42,-30,-49,-47,-40,-40,-31,-33,-33,-59,-56,-53,-54,-34,-39,-41,-121,-89,-105,-81,-76,-39,-58,-101,-32,-74,-17,-14,-21,-33,-37,-18,-8,-39,-27,-23,17,-13,-16,-43,-27,-39,-40,-42,-34,-30,-21,-28,-26,-30,-39,-41,-34,-21,-31,-42,-22,-52,-24,RIGHT
4.35625,-39,-25,-17,-29,-25,-29,-4,-36,-40,-31,-30,-13,-21,1,-46,-44,-43,-41,-21,-24,-23,-117,-92,-111,-76,-71,-40,-59,-107,-42,-79,-24,-19,-27,-37,-41,-17,-1,-46,-20,-53,28,-21,-26,-65,-43,-63,-53,-47,-42,-41,-37,-51,-51,-52,-59,-59,-59,-49,-73,-42,-34,-57,-58,RIGHT
4.3625,-59,-57,-42,-52,-52,-59,-31,-64,-66,-58,-58,-39,-57,-42,-71,-69,-65,-67,-53,-62,-68,-136,-119,-139,-105,-101,-71,-88,-133,-73,-105,-54,-53,-58,-67,-72,-42,-23,-82,-56,-78,-66,-27,-11,-79,-61,-82,-73,-67,-59,-63,-54,-73,-68,-64,-79,-73,-64,-51,-68,-58,-55,-78,-87,RIGHT
4.36875,-99,-91,-77,-84,-83,-83,-62,-100,-97,-88,-86,-73,-90,-80,-90,-91,-92,-93,-80,-90,-93,-137,-120,-139,-122,-119,-84,-95,-139,-89,-121,-67,-71,-75,-81,-84,-49,-30,-79,-63,-50,-67,-33,-20,-84,-69,-79,-78,-76,-70,-80,-67,-82,-74,-67,-72,-72,-71,-56,-66,-69,-65,-92,-83,RIGHT
4.375,-78,-82,-76,-90,-80,-74,-50,-74,-90,-86,-83,-74,-91,-76,-79,-90,-95,-98,-91,-100,-97,-124,-91,-103,-95,-91,-69,-73,-111,-61,-90,-60,-60,-65,-69,-70,-30,-15,-58,-52,-73,-60,-29,-35,-92,-78,-81,-78,-85,-78,-90,-80,-95,-87,-79,-65,-70,-82,-68,-68,-65,-66,-96,-65,RIGHT
4.38125,-66,-73,-64,-82,-70,-74,-51,-77,-87,-81,-78,-77,-92,-88,-91,-93,-95,-97,-96,-108,-112,-121,-95,-111,-83,-79,-61,-70,-115,-64,-77,-46,-49,-53,-58,-63,-31,-23,-76,-60,-99,-73,-20,-58,-86,-80,-82,-84,-88,-77,-88,-82,-95,-89,-81,-74,-79,-86,-70,-64,-63,-62,-84,-51,RIGHT
4.3875,-81,-72,-58,-71,-58,-65,-49,-96,-91,-78,-70,-69,-83,-86,-103,-101,-95,-95,-88,-101,-108,-132,-97,-108,-109,-104,-63,-68,-110,-70,-77,-41,-45,-51,-52,-55,-20,-15,-79,-53,-77,-63,-21,-52,-78,-78,-89,-91,-91,-74,-76,-72,-86,-82,-77,-89,-87,-83,-63,-58,-73,-66,-75,-52,RIGHT
4.39375,-58,-42,-29,-41,-29,-40,-33,-54,-50,-34,-25,-27,-53,-67,-67,-59,-51,-51,-46,-64,-82,-103,-79,-102,-69,-67,-43,-61,-119,-17,-35,-14,-8,-16,-26,-25,-16,-46,-15,-66,-19,-47,27,-27,-30,-61,-35,-32,-26,-8,-11,-15,-31,-33,-26,-29,-21,-17,-3,6,-54,-36,-39,-21,RIGHT
4.4,3,10,24,14,18,-2,-18,4,7,23,29,24,-11,-27,-5,-2,7,1,1,-22,-43,-131,-101,-135,-74,-69,-39,-67,-145,-19,-37,-2,-8,-10,-19,-24,-12,-48,-21,-51,-17,-2,26,-35,-15,-58,-21,-25,-26,-13,-18,-23,-37,-41,-35,-46,-43,-42,-21,-15,-31,-11,-10,6,RIGHT
4.40625,-50,-45,-30,-29,-13,-19,-6,-55,-51,-32,-20,-14,-33,-23,-64,-61,-51,-55,-51,-64,-68,-152,-117,-114,-120,-117,-75,-60,-85,-74,-84,-39,-61,-60,-49,-49,12,23,-82,-15,-67,-14,-32,-29,-85,-82,-101,-88,-90,-69,-68,-64,-72,-71,-70,-103,-91,-84,-50,-44,-60,-43,-40,-29,RIGHT
4.4125,-61,-46,-36,-37,-20,-18,5,-47,-46,-25,-16,-11,-26,-24,-63,-47,-41,-40,-30,-44,-56,-87,-60,-59,-79,-76,-39,-21,-33,-60,-48,-7,-19,-22,-16,-15,37,59,-70,-4,-64,-44,-29,-15,-67,-45,-65,-40,-37,-15,-16,-13,-22,-26,-30,-47,-31,-28,2,-3,-71,-55,-56,-51,RIGHT
4.41875,-35,-5,15,15,26,9,25,-8,2,23,29,39,10,-6,-12,2,7,5,19,-3,-28,-81,-37,-31,-87,-81,-10,7,-2,-60,-49,12,-5,0,5,-3,60,91,-37,20,-48,-11,-24,1,-45,-33,-44,-23,-17,8,4,6,-5,-17,-30,-36,-24,-15,4,-15,-51,-39,-52,-53,RIGHT
4.425,-63,-41,-10,4,17,9,34,-52,-26,1,15,29,13,7,-54,-21,-3,0,18,1,-21,-122,-62,-44,-150,-142,-43,-7,0,-133,-105,-22,-48,-33,-21,-27,49,82,-100,20,-86,-2,-53,-7,-88,-37,-70,-38,-17,13,12,12,-3,-17,-34,-39,-17,-1,7,-13,-30,-23,-49,-58,RIGHT
4.43125,-89,-52,-27,-11,5,-2,21,-54,-25,2,21,26,16,11,-44,-12,10,15,31,11,-12,-139,-96,-96,-169,-163,-64,-41,-53,-153,-110,-33,-57,-45,-36,-40,24,44,-110,6,-85,1,-70,-22,-62,-32,-39,-12,5,28,26,22,5,-8,-17,-7,7,10,16,3,-7,-6,-38,-39,RIGHT
4.4375,-73,-41,-23,-15,6,-6,18,-32,-13,6,22,24,14,8,-22,-5,11,13,27,7,-17,-127,-81,-79,-133,-129,-57,-29,-44,-101,-96,-27,-51,-37,-29,-28,37,48,-68,7,-61,-3,-26,-17,-39,-43,-8,0,4,17,11,6,-11,-20,-26,7,8,-6,4,5,6,5,-28,-6,RIGHT
4.44375,-52,-38,-17,-11,10,-1,20,-21,-12,1,18,15,7,-4,-14,-11,-2,-1,11,-8,-31,-95,-58,-57,-102,-99,-41,-13,-28,-73,-71,-22,-40,-30,-21,-19,40,62,-44,6,-50,-14,-11,-36,-26,-40,4,-1,-7,1,-8,-7,-18,-19,-21,16,5,-17,-1,16,12,7,-16,19,RIGHT
4.45,-49,-41,-29,-32,-8,-11,12,-29,-27,-18,-4,-7,-11,-12,-30,-32,-29,-31,-16,-33,-41,-108,-78,-77,-117,-114,-63,-39,-40,-90,-90,-45,-67,-62,-53,-51,14,52,-74,-8,-61,-22,-29,-29,-51,-46,-34,-37,-48,-40,-52,-48,-52,-44,-39,-12,-31,-61,-33,-11,-2,-12,-27,6,RIGHT
4.45625,-79,-74,-66,-78,-50,-46,-15,-65,-62,-54,-47,-38,-48,-39,-66,-62,-63,-68,-55,-65,-64,-113,-80,-77,-125,-122,-77,-50,-46,-103,-104,-65,-79,-76,-68,-60,9,36,-86,-16,-69,-11,-32,-17,-82,-67,-57,-61,-71,-62,-69,-59,-60,-46,-40,-25,-47,-70,-28,5,-18,-32,-43,-12,RIGHT
4.4625,-82,-75,-65,-77,-55,-45,-7,-74,-73,-66,-57,-35,-49,-30,-84,-79,-79,-79,-63,-71,-60,-90,-64,-65,-117,-112,-65,-39,-44,-110,-105,-64,-77,-72,-65,-61,11,39,-108,-11,-115,-37,-52,-25,-95,-55,-73,-80,-91,-76,-79,-61,-64,-46,-31,-39,-61,-72,-31,2,-31,-44,-51,-29,RIGHT
4.46875,-115,-105,-85,-84,-63,-53,-17,-119,-106,-87,-66,-53,-61,-49,-120,-109,-98,-92,-74,-86,-77,-108,-78,-72,-142,-136,-81,-50,-49,-130,-124,-79,-99,-92,-81,-79,-2,26,-138,-29,-149,-77,-63,-26,-119,-70,-99,-109,-108,-95,-92,-75,-81,-64,-44,-76,-90,-89,-46,-13,-55,-63,-60,-68,RIGHT
4.475,-130,-116,-96,-92,-77,-68,-30,-126,-113,-93,-71,-64,-80,-73,-136,-118,-106,-98,-86,-99,-93,-152,-106,-90,-154,-149,-95,-59,-56,-136,-127,-87,-102,-93,-83,-75,1,39,-122,-15,-114,-40,-83,-63,-124,-69,-103,-111,-107,-92,-90,-74,-80,-64,-49,-80,-90,-82,-40,1,-74,-72,-65,-90,RIGHT
4.48125,-105,-93,-73,-67,-59,-53,-11,-97,-90,-71,-52,-53,-67,-52,-112,-97,-88,-80,-72,-87,-80,-139,-107,-99,-142,-141,-88,-55,-62,-126,-119,-74,-93,-83,-71,-69,4,43,-115,-9,-111,-25,-83,-51,-109,-66,-82,-90,-84,-69,-69,-59,-74,-60,-48,-56,-66,-63,-34,1,-65,-56,-56,-65,RIGHT
4.4875,-115,-103,-85,-80,-69,-70,-27,-103,-97,-83,-64,-70,-78,-62,-111,-99,-90,-86,-79,-94,-89,-152,-115,-111,-162,-158,-100,-67,-70,-131,-134,-89,-103,-95,-86,-79,-13,20,-117,-31,-112,-60,-62,-33,-109,-71,-78,-78,-69,-58,-61,-54,-69,-57,-41,-44,-51,-50,-29,7,-40,-33,-40,-24,RIGHT
4.49375,-92,-83,-74,-73,-62,-68,-34,-65,-70,-71,-54,-62,-71,-60,-76,-76,-74,-74,-67,-80,-79,-140,-103,-106,-140,-137,-93,-68,-81,-116,-114,-87,-93,-89,-81,-76,-20,18,-96,-29,-80,-64,-67,-35,-102,-65,-78,-77,-70,-55,-60,-51,-61,-47,-25,-45,-53,-49,-20,27,-23,-18,-25,1,RIGHT
4.5,-83,-90,-85,-74,-69,-71,-42,-77,-87,-84,-68,-60,-76,-54,-106,-92,-85,-83,-70,-80,-73,-165,-131,-130,-154,-151,-109,-88,-103,-123,-112,-98,-109,-108,-98,-93,-33,16,-119,-33,-135,-45,-86,-35,-107,-66,-89,-89,-80,-59,-63,-48,-58,-37,-13,-43,-57,-49,-13,39,-18,-13,-5,12,RIGHT
4.50625,-118,-118,-108,-103,-97,-87,-54,-121,-112,-106,-93,-74,-82,-54,-125,-109,-103,-99,-80,-83,-71,-164,-138,-138,-163,-161,-119,-98,-102,-135,-140,-109,-117,-116,-107,-97,-42,8,-133,-28,-122,-14,-73,-49,-111,-51,-95,-95,-90,-72,-68,-52,-57,-39,-21,-55,-70,-62,-18,20,-35,-32,-15,-20,RIGHT
4.5125,-116,-108,-91,-91,-81,-70,-37,-103,-95,-89,-77,-61,-61,-36,-108,-98,-91,-89,-64,-64,-58,-153,-118,-116,-150,-146,-100,-76,-80,-119,-121,-85,-93,-90,-81,-77,-21,17,-119,-13,-113,-16,-67,-58,-96,-46,-70,-76,-69,-56,-51,-34,-41,-24,-10,-46,-58,-43,2,41,-44,-47,-33,-43,RIGHT
4.51875,-93,-90,-72,-67,-56,-50,-20,-87,-84,-76,-64,-40,-50,-36,-89,-85,-79,-70,-47,-51,-54,-129,-108,-110,-133,-130,-83,-58,-69,-103,-97,-65,-77,-76,-67,-60,2,33,-105,-7,-95,-34,-60,-22,-89,-33,-64,-75,-69,-53,-47,-30,-39,-22,-6,-52,-63,-41,3,39,-40,-41,-31,-27,RIGHT
4.525,-96,-91,-74,-64,-50,-42,-13,-92,-95,-82,-68,-37,-51,-38,-103,-98,-93,-79,-59,-64,-64,-145,-111,-116,-139,-135,-83,-58,-72,-114,-108,-70,-79,-72,-62,-58,7,38,-110,-3,-108,-7,-68,-33,-119,-46,-95,-85,-82,-63,-61,-47,-55,-41,-26,-53,-62,-49,-19,7,-38,-38,-35,-15,RIGHT
4.53125,-95,-86,-65,-51,-32,-26,5,-83,-87,-75,-55,-26,-42,-25,-93,-89,-80,-71,-54,-57,-58,-131,-89,-78,-128,-125,-54,-25,-33,-109,-91,-39,-51,-41,-31,-30,36,68,-104,10,-106,-14,-65,-25,-106,-39,-69,-56,-52,-39,-42,-31,-41,-30,-21,-22,-33,-32,-5,22,-25,-32,-38,-11,RIGHT
4.5375,-79,-67,-51,-42,-22,-14,10,-65,-70,-66,-55,-24,-42,-24,-73,-74,-69,-70,-54,-58,-58,-129,-82,-83,-137,-132,-51,-27,-45,-110,-81,-41,-49,-45,-34,-31,23,58,-125,4,-122,-21,-84,-29,-92,-53,-56,-50,-55,-40,-50,-39,-48,-41,-37,-19,-26,-40,-13,3,-15,-35,-50,-24,RIGHT
4.54375,-78,-59,-59,-58,-38,-28,-3,-59,-64,-67,-62,-34,-50,-31,-66,-67,-67,-71,-55,-59,-56,-117,-79,-84,-111,-108,-50,-37,-50,-103,-69,-49,-49,-47,-42,-35,13,53,-93,8,-98,1,-56,-37,-76,-44,-35,-35,-46,-28,-43,-29,-40,-29,-25,5,-6,-29,-3,14,-3,-32,-56,-29,RIGHT
4.55,-71,-63,-53,-59,-37,-31,-3,-54,-62,-60,-50,-24,-39,-23,-49,-55,-59,-59,-42,-44,-41,-103,-73,-79,-104,-101,-47,-35,-44,-84,-58,-41,-40,-43,-43,-35,12,59,-54,4,-56,-23,-52,-33,-52,-32,-21,-17,-31,-15,-27,-14,-20,-8,-1,5,-5,-17,14,39,10,-16,-39,-14,RIGHT
4.55625,-46,-50,-42,-43,-22,-17,7,-36,-45,-46,-34,0,-17,-8,-34,-42,-42,-42,-20,-20,-18,-88,-66,-73,-81,-79,-32,-16,-39,-63,-38,-23,-21,-23,-18,-11,36,70,-50,21,-54,36,-26,-29,-42,-14,-31,-21,-24,-8,-10,6,6,15,20,-5,-5,-6,31,52,10,-1,-9,1,RIGHT
4.5625,-28,-18,-8,-9,16,22,42,-16,-20,-15,-2,24,20,30,-23,-18,-11,-9,15,14,12,-62,-43,-40,-50,-46,10,24,-3,-38,-25,20,25,27,33,34,80,95,-23,52,-6,36,18,-31,12,18,32,30,27,41,42,50,47,49,46,58,52,43,72,93,33,27,28,33,RIGHT
4.56875,5,29,45,40,65,68,78,36,34,41,52,65,62,60,44,39,46,47,63,62,48,-48,-12,-11,-34,-29,41,50,25,-18,3,59,55,62,68,66,105,109,14,61,52,14,49,-4,50,40,85,81,77,88,82,89,82,81,74,115,98,87,112,139,91,83,84,96,RIGHT
4.575,30,44,52,51,74,76,80,69,56,56,63,70,78,71,76,64,68,68,84,82,69,-55,-15,-20,-46,-41,41,48,12,-25,12,52,50,63,68,68,96,105,18,69,33,62,51,21,57,57,102,101,97,107,101,112,105,108,104,141,121,108,138,167,150,138,136,162,RIGHT
4.58125,32,50,63,59,83,81,88,65,62,69,78,85,95,95,80,74,81,86,105,104,93,-37,-7,-14,-31,-26,61,62,16,-21,21,68,66,84,82,78,107,115,-1,82,0,69,60,21,59,74,103,103,98,108,105,122,117,121,116,139,120,105,140,166,170,153,150,178,RIGHT
4.5875,17,47,64,67,83,76,81,33,46,58,66,70,80,83,53,52,56,63,83,86,76,-60,-30,-41,-54,-50,32,26,-15,-50,-7,36,41,51,50,45,68,88,-40,58,-16,52,2,5,1,47,43,54,53,56,57,76,73,84,80,77,65,55,96,122,132,112,116,129,RIGHT
4.59375,-30,5,22,17,33,31,45,-4,10,20,26,23,46,62,12,16,18,20,43,48,53,-106,-74,-87,-110,-105,-15,-19,-54,-107,-59,-11,-4,5,3,2,27,56,-79,37,-54,67,-67,-16,-36,25,5,16,18,21,25,44,42,58,62,39,28,20,61,82,68,48,60,62,RIGHT
4.6,-75,-39,-17,-23,-4,6,22,-49,-31,-18,-4,2,24,41,-32,-25,-19,-11,21,26,31,-138,-108,-108,-144,-138,-51,-39,-68,-146,-107,-39,-45,-33,-30,-32,10,37,-122,14,-99,10,-91,-7,-69,12,-29,-17,-14,-5,5,24,25,41,45,10,1,-3,42,65,15,-1,15,8,RIGHT
4.60625,-104,-62,-40,-37,-13,9,23,-62,-44,-29,-15,3,31,39,-40,-31,-19,-4,31,36,38,-129,-95,-83,-145,-139,-37,-17,-42,-149,-96,-24,-32,-15,-5,-4,42,64,-111,34,-71,46,-79,-20,-53,26,-4,8,12,23,33,52,58,69,67,36,31,27,73,97,12,-1,17,3,RIGHT
4.6125,-71,-26,-2,7,37,52,61,-26,-8,12,34,42,74,73,-2,5,23,39,71,74,68,-128,-70,-59,-139,-132,-9,9,-18,-134,-98,1,-8,13,25,19,58,74,-108,49,-70,43,-67,-37,-43,50,13,38,43,54,61,79,81,89,84,56,54,50,95,109,43,33,46,31,RIGHT
4.61875,-61,-10,6,14,42,49,52,-2,10,20,39,40,69,56,13,20,31,42,68,67,55,-133,-81,-79,-137,-131,-20,-6,-42,-132,-97,-7,-24,-1,13,8,42,55,-88,27,-79,6,-52,-1,-39,36,10,37,41,52,56,70,68,74,69,64,55,45,83,105,73,59,67,62,RIGHT
4.625,-62,-30,-7,6,40,48,49,-3,5,16,35,46,67,52,9,20,30,42,67,65,55,-129,-88,-84,-134,-128,-18,1,-44,-118,-86,-10,-23,5,20,16,53,61,-68,29,-71,26,-39,-4,-7,26,27,46,42,57,62,73,69,74,67,70,64,48,80,103,79,61,72,59,RIGHT
4.63125,-63,-31,-5,15,43,49,49,-6,11,22,42,52,68,55,20,27,35,48,72,67,59,-137,-87,-75,-138,-131,-22,-8,-39,-125,-92,-17,-23,2,13,6,42,60,-87,30,-40,49,-31,-17,1,32,34,52,53,62,67,78,72,74,64,69,68,53,81,89,71,46,51,30,RIGHT
4.6375,-60,-17,7,17,41,44,42,12,22,33,51,53,69,59,31,36,45,58,74,71,61,-125,-78,-74,-111,-107,-13,-9,-37,-100,-62,-8,-6,10,18,17,41,64,-58,30,-9,40,-17,-25,7,14,43,62,68,73,72,80,69,71,59,84,81,70,86,97,79,56,46,30,RIGHT
4.64375,-32,-4,14,15,39,40,38,31,27,31,46,43,54,42,34,35,43,51,62,60,43,-99,-61,-62,-107,-100,-8,-5,-36,-84,-49,-13,-6,4,12,13,32,58,-46,25,-23,42,-13,-20,9,16,45,54,60,64,62,71,61,66,56,77,71,62,81,90,90,71,50,52,RIGHT
4.65,-36,-14,0,-4,27,30,37,17,15,17,29,36,50,46,25,30,34,43,60,62,51,-81,-69,-73,-99,-95,-13,-8,-37,-85,-56,-12,-10,1,6,8,40,68,-53,28,-20,-2,-4,-15,10,45,40,50,55,62,63,80,75,82,77,65,60,59,93,111,84,77,63,74,RIGHT
4.65625,-45,-18,-4,-8,24,27,40,11,9,11,23,24,46,45,14,20,25,28,49,49,51,-83,-70,-78,-107,-103,-22,-20,-57,-102,-80,-32,-30,-16,-8,-7,30,66,-68,16,-28,-4,-23,-33,-28,28,5,21,22,36,33,49,45,51,42,32,33,33,58,59,50,44,39,37,RIGHT
4.6625,-62,-39,-29,-28,1,13,25,9,-5,-10,4,4,33,33,8,9,9,14,34,38,42,-146,-88,-81,-143,-136,-28,-23,-61,-125,-96,-33,-37,-18,-7,-8,30,64,-67,22,-30,25,-54,-40,-25,34,25,32,32,45,44,61,56,63,57,51,48,46,72,72,33,22,13,8,RIGHT
4.66875,-59,-36,-25,-25,4,20,32,11,-1,-8,3,17,35,44,8,9,8,20,42,49,52,-146,-91,-82,-147,-140,-20,-15,-54,-128,-92,-23,-28,-5,5,1,36,63,-70,29,-63,53,-36,1,-13,45,21,32,38,50,48,72,67,78,71,52,47,49,84,95,41,29,23,17,RIGHT
4.675,-52,-26,-11,-14,15,27,46,1,-4,1,8,20,44,62,3,10,11,22,46,53,59,-115,-71,-65,-130,-122,-12,-10,-41,-116,-81,-25,-23,-6,5,5,43,59,-80,32,-52,77,-26,-14,-24,20,-3,10,18,25,24,44,41,50,40,23,18,16,50,57,41,28,25,30,RIGHT
4.68125,-68,-46,-35,-37,-7,13,35,-23,-29,-26,-18,-1,30,46,-23,-13,-14,-5,21,27,37,-114,-87,-80,-130,-125,-27,-23,-54,-120,-88,-33,-32,-21,-11,-9,29,46,-90,24,-49,31,-40,-22,-30,21,-7,3,14,15,15,25,24,29,21,16,14,1,22,19,22,4,-7,15,RIGHT
4.6875,-64,-35,-25,-23,1,17,31,-6,-14,-12,-3,13,31,32,-11,-4,-4,2,25,28,32,-118,-83,-79,-119,-114,-24,-21,-54,-104,-100,-31,-22,-14,-9,-6,26,40,-64,23,-30,21,-10,-5,-16,26,4,8,11,12,8,17,15,20,16,17,10,-10,8,8,6,-18,-53,-6,RIGHT
4.69375,-58,-33,-28,-34,-10,8,17,-1,-18,-23,-17,-3,15,15,-16,-15,-17,-14,5,13,15,-116,-86,-81,-118,-111,-31,-27,-51,-106,-93,-43,-26,-25,-21,-15,14,26,-76,4,-48,-12,-42,-10,-35,8,-12,-4,1,-1,-4,8,7,11,8,9,4,-6,15,24,3,-20,-73,1,RIGHT
4.7,-70,-45,-39,-51,-27,-11,-3,-14,-28,-35,-38,-22,-6,-6,-21,-21,-30,-29,-11,-7,-5,-128,-87,-90,-127,-121,-37,-41,-71,-115,-88,-50,-33,-35,-32,-30,-5,7,-88,-15,-60,-31,-59,-24,-43,-10,-18,-13,-5,-3,-7,4,2,6,6,4,-4,-6,18,32,8,-4,-54,30,RIGHT
4.70625,-62,-45,-43,-63,-42,-26,-11,-14,-26,-39,-47,-32,-13,-15,-33,-22,-28,-33,-13,-15,-8,-128,-77,-81,-121,-116,-39,-40,-62,-101,-76,-51,-32,-38,-34,-24,7,20,-64,-3,-30,-1,-39,-22,-49,8,-29,-18,-10,-6,-5,8,5,12,20,-14,-16,-12,15,26,1,-1,-29,25,RIGHT
4.7125,-43,-32,-39,-60,-27,-6,14,7,-8,-25,-30,-10,9,12,-19,-6,-16,-16,3,2,10,-114,-79,-76,-114,-108,-38,-26,-55,-98,-72,-35,-30,-34,-20,-10,32,46,-50,21,-28,45,-43,-25,-45,13,-24,-8,3,4,7,16,12,16,17,-8,-8,-10,11,12,-14,-11,-24,-2,RIGHT
4.71875,-40,-22,-23,-35,-5,16,39,18,4,-6,-9,6,24,40,-7,5,-5,-7,11,8,17,-117,-82,-65,-115,-111,-37,-10,-36,-100,-73,-29,-30,-32,-15,-8,41,55,-67,30,-64,34,-36,-56,-21,-16,-6,-3,5,2,-2,-1,-10,-12,-22,-1,-7,-23,-15,-28,-20,-31,-59,-29,RIGHT
4.725,-51,-24,-29,-46,-17,3,27,-3,-3,-13,-15,-10,6,12,-11,4,-5,-15,1,-2,-8,-120,-83,-75,-109,-103,-47,-22,-42,-97,-70,-44,-35,-42,-26,-16,29,49,-74,22,-47,4,-23,-49,-19,-23,-4,-1,3,4,-2,1,-5,-10,-18,-2,-4,-18,-2,-9,-16,-42,-84,-36,RIGHT
4.73125,-52,-25,-18,-37,-11,7,23,-6,-2,-2,2,3,17,8,-7,9,5,1,18,17,8,-102,-72,-72,-90,-85,-34,-20,-45,-88,-53,-30,-15,-22,-14,-8,30,39,-64,21,-49,7,-14,2,-33,6,-14,8,13,21,17,26,25,24,16,13,12,3,28,29,1,-26,-54,-5,RIGHT
4.7375,-46,-20,-11,-24,-3,17,32,-2,-3,-5,-4,6,32,32,-13,5,2,-5,21,26,28,-105,-73,-73,-101,-96,-37,-26,-49,-93,-71,-38,-26,-29,-23,-18,27,45,-77,30,-80,18,-30,2,-52,8,-20,-3,1,9,4,18,22,20,13,8,3,-6,18,13,12,-7,-22,24,RIGHT
4.74375,-67,-46,-41,-54,-27,1,27,-21,-24,-31,-29,-11,21,32,-26,-10,-20,-22,6,17,23,-128,-95,-87,-109,-108,-65,-47,-62,-111,-95,-67,-62,-65,-51,-43,13,29,-95,18,-66,-11,-57,-14,-42,-1,-26,-14,-12,-2,-5,15,15,16,8,-2,-2,-6,16,8,10,-2,-16,33,RIGHT
4.75,-75,-55,-56,-69,-40,-9,20,-27,-31,-42,-36,-20,13,20,-32,-15,-27,-24,5,15,22,-153,-103,-88,-133,-129,-74,-46,-55,-109,-95,-59,-63,-64,-49,-39,22,26,-87,25,-61,10,-55,-18,-48,29,-26,-13,-6,6,8,30,30,34,26,8,5,5,37,39,12,7,-12,41,RIGHT
4.75625,-72,-48,-46,-52,-21,13,40,-32,-31,-32,-22,1,29,36,-39,-17,-17,-10,23,30,35,-138,-99,-89,-134,-130,-61,-32,-52,-99,-87,-44,-43,-41,-27,-16,45,50,-76,46,-62,46,-67,-13,-63,28,-26,-1,10,23,22,43,41,43,31,29,26,22,54,58,27,24,6,58,RIGHT
4.7625,-40,-9,-10,-20,13,35,64,3,2,5,11,34,53,58,-4,16,14,17,45,48,50,-91,-62,-54,-81,-82,-30,-5,-22,-62,-42,-19,-13,-15,-5,5,62,70,-46,53,-33,53,-33,-14,-18,22,18,40,44,52,42,62,59,60,49,65,63,48,78,88,55,51,41,89,RIGHT
4.76875,-25,2,-2,-17,14,29,59,14,15,17,14,27,52,59,20,36,30,27,49,52,52,-85,-59,-50,-83,-82,-36,-8,-16,-59,-47,-25,-26,-25,-14,-5,53,58,-41,46,-18,35,-7,-31,0,39,40,58,62,69,58,73,70,71,63,78,77,64,89,91,80,72,65,109,RIGHT
4.775,-16,6,3,-13,11,29,55,40,42,35,29,36,56,55,49,61,53,49,66,65,58,-74,-53,-49,-76,-76,-32,-8,-18,-42,-30,-24,-17,-21,-12,3,54,65,-16,50,-1,60,-1,-23,3,41,48,68,74,78,65,79,73,67,52,77,78,68,86,80,84,71,61,100,RIGHT
4.78125,3,24,8,-13,6,24,50,54,51,35,25,32,50,45,46,60,51,45,59,60,50,-97,-71,-64,-82,-80,-35,-11,-29,-44,-34,-24,-25,-27,-15,-4,44,53,-26,35,-22,29,-1,13,4,33,37,55,63,71,65,81,77,70,57,74,76,71,90,86,79,64,55,94,RIGHT
4.7875,-16,4,-3,-17,12,32,55,22,33,32,34,34,61,50,23,53,51,52,70,74,62,-90,-54,-45,-72,-71,-24,7,-12,-36,-32,-6,-13,-13,4,17,73,69,-26,38,2,19,16,6,4,36,51,65,74,85,78,93,91,81,67,82,89,79,97,95,79,68,62,101,RIGHT
4.79375,11,32,26,6,37,59,79,50,55,47,49,52,78,64,45,67,60,57,77,83,71,-63,-26,-20,-53,-51,-2,33,14,-24,-15,10,6,3,21,35,96,93,-14,63,-21,57,2,6,-1,36,33,56,65,79,70,85,82,76,62,68,76,70,87,85,77,64,60,86,RIGHT
4.8,7,20,12,-3,29,52,77,24,37,31,36,34,71,66,28,51,49,47,68,76,68,-59,-34,-34,-56,-55,-11,18,-8,-22,-27,5,-8,-8,13,23,81,80,-23,70,-27,58,25,3,-3,50,35,60,71,92,88,98,94,88,68,78,91,91,107,106,84,69,59,81,RIGHT
4.80625,-10,11,13,5,35,55,78,17,45,49,58,53,80,78,41,68,72,72,91,94,83,-46,-30,-23,-63,-63,-8,22,6,-33,-37,-2,-6,-3,16,25,69,86,-23,64,1,61,22,11,10,30,48,70,81,102,101,115,108,99,79,84,90,99,126,125,96,88,81,103,RIGHT
4.8125,-15,12,16,11,35,48,71,21,47,50,54,66,79,76,44,70,70,69,90,91,78,-62,-45,-35,-81,-79,-15,14,-6,-39,-58,-10,-8,-7,6,13,62,65,-37,47,6,45,5,0,9,39,43,61,69,88,90,101,98,89,71,72,77,84,108,102,88,88,87,112,RIGHT
4.81875,2,20,18,9,30,40,58,30,53,50,50,61,62,51,44,70,68,60,81,79,64,-60,-40,-34,-64,-62,-8,9,-22,-25,-41,2,7,5,12,22,61,64,-26,40,4,30,14,-28,10,45,50,71,78,100,95,103,96,86,70,81,87,92,108,100,80,81,80,116,RIGHT
4.825,14,42,40,22,42,45,53,44,69,72,72,76,67,53,60,86,87,80,95,91,72,-58,-33,-19,-64,-60,-5,10,1,-27,-29,5,13,13,21,31,52,74,-3,40,-16,18,31,3,21,51,66,88,90,112,105,114,105,96,86,96,101,101,121,121,89,84,85,128,RIGHT
4.83125,15,39,42,32,51,49,51,58,73,71,73,81,68,50,71,90,87,78,87,85,68,-59,-35,-18,-58,-57,-9,6,-3,-24,-28,5,7,8,17,21,37,60,-6,21,-6,10,20,13,24,39,64,83,89,102,86,92,83,74,64,95,95,83,95,88,98,83,79,125,RIGHT
4.8375,1,23,22,8,27,25,27,33,54,45,43,55,46,32,46,68,62,51,59,60,50,-67,-50,-53,-65,-63,-23,-7,-35,-29,-31,-11,-5,-8,2,7,23,51,-23,10,8,3,17,-13,11,27,49,69,79,90,73,81,75,64,53,86,88,79,84,77,96,76,60,106,RIGHT
4.84375,2,25,20,2,25,26,24,40,55,46,43,59,48,37,50,73,62,52,67,68,56,-68,-61,-59,-69,-65,-27,-22,-42,-25,-30,-16,-7,-12,-1,6,23,54,-20,8,-13,39,18,-26,9,19,53,72,77,90,71,82,77,65,49,81,88,76,84,77,86,70,48,91,RIGHT
4.85,-4,13,7,-9,14,24,40,28,44,32,30,40,48,54,42,65,54,41,62,64,63,-72,-65,-59,-70,-67,-33,-19,-33,-35,-34,-16,-13,-20,-12,-1,25,61,-27,15,-13,97,6,-54,-3,19,34,61,69,89,73,86,82,70,50,68,77,75,89,76,77,69,48,83,RIGHT
4.85625,-16,3,0,-16,5,13,30,12,27,25,28,25,40,48,30,50,46,40,58,59,51,-84,-71,-67,-93,-89,-51,-33,-49,-55,-67,-36,-30,-34,-29,-17,0,36,-57,2,-54,-34,-37,-2,-47,2,-5,28,42,64,59,75,67,56,41,36,46,61,80,77,63,65,53,86,RIGHT
4.8625,-32,-6,-7,-14,4,-1,-3,-16,10,15,27,27,25,5,-11,30,31,34,53,53,33,-99,-73,-59,-96,-94,-48,-30,-39,-67,-73,-34,-23,-29,-24,-15,3,44,-81,-12,-60,-53,-39,-3,-39,12,-9,22,35,61,57,76,68,56,40,37,50,65,79,74,53,65,58,98,RIGHT
4.86875,-37,-13,-15,-25,-6,-6,-1,-23,-1,1,9,14,21,8,-11,26,21,18,43,43,33,-96,-82,-65,-99,-94,-54,-33,-40,-65,-83,-44,-36,-44,-38,-31,-3,48,-51,-8,-52,-18,-52,-17,-42,-3,-7,28,35,60,50,68,58,44,27,37,54,59,68,60,46,62,52,95,RIGHT
4.875,-34,-21,-18,-32,-18,-18,-4,-11,14,9,7,14,17,6,6,37,31,24,43,38,27,-90,-81,-80,-105,-100,-65,-46,-60,-68,-82,-61,-40,-49,-50,-41,-26,39,-52,-8,-35,-10,-55,-18,-51,0,-12,30,40,61,54,61,49,31,13,30,50,53,60,41,40,51,41,69,RIGHT
4.88125,-34,-11,-10,-28,-18,-25,-12,-7,20,15,18,13,7,-1,5,40,35,33,43,33,17,-95,-77,-74,-97,-95,-58,-45,-60,-66,-62,-46,-30,-40,-41,-33,-7,46,-55,2,-44,-1,-48,-31,-37,2,-2,34,45,67,65,71,59,41,22,38,57,64,71,51,40,48,42,58,RIGHT
4.8875,-31,-4,-1,-20,-4,-1,20,-5,16,17,26,27,26,25,6,39,36,40,52,49,39,-89,-75,-62,-94,-88,-44,-30,-43,-58,-54,-26,-17,-23,-18,-11,25,54,-51,23,-46,38,-18,-48,-10,11,18,37,42,72,67,80,70,52,30,45,55,69,82,65,50,61,60,79,RIGHT
4.89375,-24,1,4,-5,11,17,33,1,21,17,29,42,36,38,16,39,31,39,50,46,45,-82,-63,-58,-78,-71,-22,-16,-41,-39,-40,-17,-8,-5,0,4,22,43,-41,12,-9,47,20,-33,-1,-14,25,43,42,67,56,65,54,38,10,52,56,56,61,43,54,61,57,87,RIGHT
4.9,-16,4,5,1,14,19,34,11,26,19,26,37,31,37,27,43,35,38,43,37,36,-63,-32,-31,-64,-59,-5,4,-24,-32,-40,-2,1,9,14,12,36,57,-29,17,-3,14,25,-24,4,-7,45,58,62,73,65,70,59,47,32,61,67,62,70,63,55,57,51,83,RIGHT
4.90625,-7,22,26,31,34,36,36,29,39,41,52,56,37,23,34,54,48,51,54,45,35,-44,-25,-24,-64,-56,11,18,-10,-41,-46,5,14,25,29,25,43,65,-36,16,-15,-39,-2,-11,6,7,20,41,52,62,53,58,51,42,31,40,44,46,61,55,45,44,34,63,RIGHT
4.9125,-19,7,17,22,27,25,17,4,18,23,37,47,32,8,3,32,30,33,42,36,29,-62,-51,-50,-72,-65,-5,-10,-52,-52,-55,-12,-4,6,11,6,18,38,-45,-1,-18,-25,-12,-22,-21,-1,-3,23,41,55,45,53,47,42,28,33,41,48,62,53,34,36,23,53,RIGHT
4.91875,-24,1,14,12,25,26,26,2,22,24,36,42,40,22,13,39,36,37,51,48,42,-66,-45,-41,-68,-61,18,10,-37,-37,-30,23,31,40,43,42,52,60,-17,25,7,17,18,-25,6,11,37,67,85,99,86,91,82,69,47,83,92,93,101,84,57,63,47,77,RIGHT
4.925,33,65,70,65,74,79,70,67,80,76,88,91,80,57,76,91,86,79,92,85,69,-21,-6,-10,-30,-23,55,51,0,-11,10,56,68,76,79,76,73,77,22,48,43,42,42,-25,30,8,70,97,107,117,99,102,92,72,40,103,108,101,109,89,95,100,80,109,RIGHT
4.93125,43,56,59,59,65,68,62,71,72,59,71,80,64,48,74,79,71,63,74,64,53,-36,-14,-5,-42,-36,42,42,6,-22,-11,38,43,53,59,52,58,58,-10,31,-7,11,4,-45,7,-10,45,73,81,89,73,83,74,60,35,65,77,77,91,76,96,100,83,102,RIGHT
4.9375,2,25,34,33,40,42,41,26,44,36,48,64,47,33,40,55,51,47,60,52,46,-46,-24,-11,-48,-43,30,30,2,-24,-20,23,33,42,46,43,51,52,-37,22,-5,3,21,-3,2,2,34,62,74,84,72,83,73,62,41,62,76,74,87,73,74,80,70,79,RIGHT
4.94375,12,43,44,37,44,53,50,34,57,50,55,67,56,41,43,64,60,51,67,59,54,-24,-11,-7,-29,-25,32,38,6,-22,-1,22,32,38,43,43,53,63,-27,37,17,26,24,-15,14,13,36,53,61,64,52,58,46,40,19,42,53,44,55,46,48,51,45,55,RIGHT
4.95,-7,6,15,11,20,33,39,9,22,15,21,40,27,22,24,33,26,14,31,23,27,-50,-23,-25,-65,-58,8,12,-21,-44,-35,-1,5,12,15,14,30,42,-15,21,4,5,-2,-18,-18,-2,6,30,41,40,30,36,30,26,11,34,37,28,45,40,32,34,33,60,RIGHT
4.95625,-18,-15,-1,-3,4,14,25,-6,4,1,16,29,15,12,6,19,12,8,24,18,22,-63,-32,-37,-69,-64,-7,-1,-27,-45,-49,-16,-5,1,4,7,19,38,-30,16,-18,-15,-8,-27,-34,2,-7,16,31,30,26,42,40,39,28,21,23,29,59,62,24,36,44,75,RIGHT
4.9625,-20,-10,-6,-8,2,12,25,-7,3,4,23,30,18,14,1,14,11,13,30,24,25,-49,-31,-33,-49,-44,-10,4,-22,-31,-23,-14,-5,-5,2,7,19,32,-36,11,-40,-11,9,-2,-28,-1,-14,6,18,21,22,35,35,33,18,-1,6,15,47,41,13,33,50,60,RIGHT
4.96875,-23,-17,-13,-21,-16,-5,7,-16,-4,-5,8,13,6,5,-8,5,1,3,16,12,12,-43,-34,-36,-56,-50,-15,-14,-37,-31,-33,-18,0,-7,-8,-2,6,15,-29,3,-12,3,16,-5,-14,-5,-9,6,14,17,13,22,21,17,1,2,10,3,23,5,2,13,25,26,RIGHT
4.975,-10,3,8,-7,-13,-3,9,-4,14,10,21,27,12,12,3,18,12,13,21,18,15,-43,-34,-37,-36,-33,-7,-14,-36,-18,-14,-14,13,5,-2,5,5,14,-25,6,10,-17,33,-11,-16,-7,3,14,24,26,19,22,20,17,7,15,20,8,20,9,5,1,-1,17,RIGHT
4.98125,1,4,10,-4,-8,-5,7,7,22,16,24,30,11,5,15,27,21,20,24,21,16,-45,-42,-47,-54,-51,-13,-26,-46,-22,-11,-16,1,-2,-6,-5,-3,6,-17,3,4,-2,7,-3,-16,7,8,27,39,38,31,30,27,29,25,18,29,19,35,37,15,7,1,35,RIGHT
4.9875,-2,-3,7,-4,-4,-2,8,10,23,18,27,29,15,17,18,29,26,22,28,20,27,-45,-39,-49,-58,-55,-8,-16,-48,-25,-13,-14,6,6,1,-3,-3,14,-22,10,-18,8,-3,-14,-27,5,-12,15,31,26,22,27,24,22,12,-5,9,5,35,38,10,12,8,47,RIGHT
4.99375,-10,3,17,8,4,0,4,-4,20,23,33,27,14,13,2,21,21,20,23,14,18,-44,-35,-46,-48,-48,-4,-11,-51,-36,-14,-14,10,13,3,-2,-2,12,-37,4,-21,-4,-7,-24,-27,-2,-11,5,17,16,18,27,25,23,5,-11,2,6,42,41,-2,15,18,58,RIGHT
5.0,-19,-5,8,4,4,2,5,-10,9,10,22,33,20,11,-4,13,10,11,19,16,19,-68,-41,-49,-86,-81,-6,-11,-43,-57,-53,-11,-2,5,2,-6,2,1,-68,2,-36,-22,-33,-13,-46,-26,-25,-2,6,15,16,28,27,18,-5,-13,1,7,37,26,-7,14,22,48,RIGHT
5.00625,-31,-17,0,-5,3,2,6,-25,-5,0,15,22,20,7,-12,7,7,10,22,19,16,-63,-32,-30,-85,-81,-4,-1,-26,-53,-61,-11,3,8,9,3,16,12,-54,13,-39,-23,-12,-22,-63,-11,-32,1,14,28,29,40,35,25,3,6,18,22,45,28,3,19,19,41,RIGHT
5.0125,-29,-6,16,9,13,15,25,-14,5,18,35,36,31,22,-15,16,21,27,37,32,29,-41,-23,-16,-67,-64,1,5,-18,-51,-56,-6,4,11,15,7,24,16,-40,10,-29,-12,-20,-23,-32,1,-10,11,20,27,31,39,33,23,3,15,21,20,41,24,15,22,12,37,RIGHT
5.01875,-33,-8,13,12,20,25,30,-14,8,20,37,45,36,26,-3,18,21,29,40,35,32,-32,-24,-18,-56,-52,5,10,-12,-45,-45,3,7,16,20,13,28,20,-63,18,-26,-15,-2,4,-26,4,-5,10,16,23,29,33,27,21,6,2,7,8,26,8,14,13,2,35,RIGHT
5.025,-26,2,15,13,21,22,23,-15,5,12,33,39,27,15,-14,5,9,15,27,23,22,-52,-26,-24,-71,-69,-1,5,-20,-54,-52,-12,-5,5,11,5,26,23,-60,27,-33,-17,-7,-7,-58,-5,-44,-23,-15,-6,1,3,1,-2,-17,-37,-24,-19,-2,-12,-14,-14,-24,17,RIGHT
5.03125,-45,-35,-17,-12,-5,4,16,-35,-26,-21,0,18,7,6,-34,-21,-18,-13,2,-2,10,-52,-36,-37,-76,-74,-17,-11,-34,-53,-52,-26,-24,-17,-8,-13,8,11,-47,16,-60,-6,-41,-3,-65,-12,-48,-27,-16,-10,-8,-5,-8,-6,-14,-34,-24,-19,-4,4,-32,-25,-40,15,RIGHT
5.0375,-48,-49,-34,-31,-29,-14,-4,-46,-40,-37,-26,-3,-16,-7,-42,-30,-32,-30,-21,-24,-8,-77,-58,-57,-88,-87,-36,-23,-42,-69,-54,-43,-35,-31,-25,-26,-15,-2,-73,2,-45,2,-45,-40,-67,-28,-48,-30,-21,-16,-18,-17,-23,-19,-26,-33,-24,-28,-10,-3,-35,-28,-43,9,RIGHT
5.04375,-48,-30,-18,-22,-19,-5,8,-27,-13,-14,-8,4,1,15,-14,-1,-6,-4,1,-5,9,-40,-24,-27,-55,-53,6,13,-20,-42,-24,-1,13,18,22,24,38,27,-38,33,-14,53,-4,-43,-20,-9,-4,13,17,24,23,24,20,17,5,8,20,13,32,30,-10,-7,-15,22,RIGHT
5.05,-4,20,33,28,36,41,40,18,36,32,42,44,40,42,24,38,36,39,39,33,40,-22,1,-5,-40,-36,39,33,-1,-28,-9,30,39,48,52,42,46,26,-26,24,-1,-13,12,8,-6,18,12,30,37,48,41,50,47,42,31,29,37,35,58,56,25,26,32,49,RIGHT
5.05625,-16,13,31,27,36,36,22,3,31,31,45,46,40,22,18,32,36,40,43,41,40,-38,-7,-5,-52,-49,24,21,-1,-46,-26,8,22,31,37,29,21,4,-42,8,-13,-43,-6,8,-29,18,8,29,42,52,49,60,56,52,36,34,46,45,72,71,47,47,65,70,RIGHT
5.0625,-11,16,30,21,35,41,27,15,38,37,49,50,52,32,27,43,48,50,58,55,55,-34,-8,-2,-42,-40,31,30,6,-20,-24,19,32,40,46,41,44,21,-22,28,-1,-7,-15,-3,-23,34,14,44,60,71,68,77,73,70,55,57,68,63,83,84,62,61,79,94,RIGHT
5.06875,-5,12,33,21,34,41,35,9,35,36,48,47,49,38,24,44,49,50,54,52,56,-38,-22,-22,-55,-52,16,14,-13,-30,-23,3,14,20,25,18,25,14,-35,22,-12,-1,-8,-3,-25,16,13,41,52,60,56,61,58,52,35,49,57,45,58,48,60,50,59,89,RIGHT
5.075,-11,4,18,2,16,21,22,11,36,31,42,37,36,31,30,45,45,47,49,45,46,-27,-15,-8,-32,-31,15,17,-9,-13,-4,1,15,20,26,26,25,21,-14,22,7,0,17,-1,-9,16,33,53,58,62,58,58,55,48,26,64,62,46,51,43,56,34,35,84,RIGHT
5.08125,7,23,39,25,39,39,34,26,49,44,60,60,56,42,45,52,54,56,65,61,61,3,1,-1,-15,-14,32,27,2,-13,1,16,27,37,41,33,31,32,-14,32,3,25,13,1,-5,31,27,43,48,63,63,68,67,63,43,52,51,52,62,57,51,39,40,101,RIGHT
5.0875,-10,12,37,32,44,44,39,7,41,46,68,68,68,59,23,46,57,65,79,78,77,-12,8,7,-34,-32,30,25,10,-21,-12,17,29,42,43,39,40,47,-13,55,21,93,40,-38,8,40,33,49,59,79,84,90,86,80,54,56,61,68,81,65,50,50,55,109,RIGHT
5.09375,3,29,55,50,58,60,57,25,56,62,83,84,76,78,34,55,62,71,81,79,81,-26,6,8,-41,-41,27,23,0,-20,-10,10,26,36,37,32,27,15,-23,40,-3,27,7,-17,-24,17,4,18,29,45,48,53,50,43,24,14,19,22,42,25,30,29,34,67,RIGHT
5.1,-31,-11,16,14,20,16,10,-23,7,12,31,40,24,17,-11,5,13,23,27,26,30,-56,-41,-31,-76,-72,-9,-17,-48,-54,-44,-21,-10,1,0,-7,-8,-29,-56,-15,-37,-69,-30,11,-57,11,-23,-3,10,23,26,31,27,25,21,-1,5,10,30,17,3,-1,-4,32,RIGHT
5.10625,-42,-20,6,0,8,3,-10,-17,14,16,33,40,20,-2,0,17,24,30,31,29,30,-31,-26,-22,-48,-47,6,-2,-18,-39,-13,-9,16,23,16,14,-3,-1,-31,7,-9,-31,10,0,-27,15,-4,20,28,36,39,37,34,31,21,6,21,18,32,12,-13,-14,-30,12,RIGHT
5.1125,1,26,48,33,40,29,10,23,54,52,65,61,43,22,43,55,57,60,49,48,46,-7,11,8,-19,-16,38,31,12,-5,21,23,50,55,46,39,14,14,11,27,48,-4,25,2,31,18,56,67,73,71,66,60,53,48,30,54,68,50,54,34,7,7,-15,24,RIGHT
5.11875,33,51,71,51,53,36,17,56,81,75,80,73,51,27,77,83,83,76,63,55,52,-4,10,3,0,1,43,23,-12,7,31,29,52,60,49,37,17,-10,21,21,41,-3,50,-2,29,7,59,77,87,84,79,69,60,49,24,64,78,63,59,39,46,43,18,61,RIGHT
5.125,26,45,68,51,53,34,16,55,81,76,84,70,50,28,68,80,82,77,67,56,53,-4,15,15,-16,-15,41,20,-6,4,10,23,49,56,47,37,11,-1,17,27,42,10,42,-2,6,4,30,68,81,76,73,63,57,45,24,59,69,53,53,33,61,54,31,78,RIGHT
5.13125,26,42,60,40,48,30,20,53,75,66,71,60,42,32,55,69,67,63,54,47,47,-1,16,14,-18,-18,31,15,5,-1,2,13,27,34,28,20,2,2,-7,26,-12,24,4,-15,-7,-11,17,44,53,46,41,36,31,26,11,37,43,21,27,13,41,32,7,61,RIGHT
5.1375,-11,7,26,6,22,10,6,5,42,34,43,38,21,21,23,39,41,38,27,25,33,-9,-6,-17,-24,-25,12,-6,-18,-17,-19,-2,13,17,14,8,-6,-25,-24,20,-16,21,27,-11,-5,6,19,42,48,38,29,30,25,25,21,42,47,19,25,14,22,13,-14,47,RIGHT
5.14375,-10,11,21,-5,14,6,-4,15,44,35,39,40,20,14,34,44,44,39,31,26,34,-24,-15,-22,-33,-31,7,-3,-38,-13,-15,-7,12,12,8,4,-8,-33,-6,-2,29,-35,24,-1,14,13,26,46,49,36,28,30,26,25,18,41,46,14,22,1,12,6,-23,40,RIGHT
5.15,0,14,19,-10,10,4,-3,21,42,37,43,44,17,2,36,43,48,43,38,28,34,-21,-21,-20,-25,-26,8,0,-32,-16,-11,6,21,14,10,10,2,-37,-32,-14,13,-16,17,-6,11,13,29,48,55,47,40,40,35,34,23,41,45,18,30,16,13,14,-8,51,RIGHT
5.15625,3,32,34,4,17,7,-4,27,51,48,49,43,17,8,36,50,53,47,36,23,33,-30,-22,-27,-41,-41,9,-2,-26,-28,-17,4,23,16,13,13,-8,-18,-20,21,13,15,17,-7,-5,-1,17,37,45,32,25,22,18,22,13,23,29,-2,15,2,4,5,-6,43,RIGHT
5.1625,2,22,34,5,14,12,5,37,49,46,47,41,20,15,46,51,51,44,34,17,27,-15,-2,-8,-21,-21,22,13,-18,3,-8,11,30,27,23,19,16,-1,20,39,28,25,25,-1,19,12,25,41,51,40,37,27,20,21,11,31,40,11,17,-1,2,-3,-14,39,RIGHT
5.16875,14,25,44,20,27,18,15,29,54,59,64,62,27,16,39,56,64,60,48,30,32,-2,-6,-12,-15,-16,24,11,-18,6,-11,21,35,35,30,23,20,-12,18,37,52,-12,42,-3,37,16,37,51,62,55,50,37,25,21,4,40,43,20,19,-8,13,2,-9,51,RIGHT
5.175,22,33,43,19,32,24,16,35,56,51,56,58,27,16,36,48,49,45,36,20,26,-12,-8,-21,-12,-13,12,6,-27,8,-3,11,20,17,20,20,13,-16,8,37,32,21,15,-40,-4,-13,-8,8,18,11,5,-4,-11,-13,-26,-16,-13,-26,-23,-52,-5,-16,-32,35,RIGHT
5.18125,-2,2,11,-15,6,10,7,2,13,5,12,24,-2,-2,-8,2,-2,-8,-9,-20,-5,-27,-7,-18,-27,-27,-1,-3,-27,-13,-29,1,1,2,8,7,10,-24,-16,11,-24,-45,-3,4,-31,-28,-35,-25,-18,-20,-23,-32,-33,-33,-38,-51,-41,-50,-43,-62,-52,-56,-78,-3,RIGHT
5.1875,-18,-5,6,-20,3,1,-3,-11,2,-1,5,26,-13,-18,-18,-6,-10,-13,-10,-20,-10,-13,-12,-18,-36,-35,4,6,-20,-14,-13,5,5,6,14,15,21,-9,-22,20,-7,-38,2,13,-24,-21,-40,-22,-13,-10,-15,-17,-15,-11,-14,-34,-29,-33,-20,-32,-74,-68,-90,-4,RIGHT
5.19375,-10,6,12,-14,24,23,23,0,14,11,16,41,13,6,-6,5,7,6,13,6,12,1,4,11,-29,-27,19,29,12,-14,-9,12,14,18,29,26,34,17,-19,37,5,-19,15,4,-29,-8,-43,-21,-16,-7,-10,-5,-4,-1,-2,-49,-41,-34,-11,-21,-67,-49,-55,25,RIGHT
5.2,-14,1,12,-6,32,24,25,-7,0,3,12,39,5,-5,-28,-17,-11,-11,-6,-15,-8,-5,11,11,-27,-26,24,28,-4,-18,-39,14,15,23,31,20,30,17,-26,25,-3,-23,-6,-6,-53,-20,-87,-63,-60,-53,-48,-45,-43,-43,-53,-117,-98,-92,-63,-95,-101,-80,-75,-33,RIGHT
5.20625,-16,-7,6,-2,25,9,10,-13,-15,-12,-1,24,-12,-16,-44,-36,-32,-30,-22,-31,-17,-12,1,6,-27,-24,21,22,-2,-21,-20,6,17,26,27,21,17,21,-13,34,-23,7,-39,-13,-59,-23,-92,-68,-65,-61,-56,-53,-49,-45,-60,-100,-89,-90,-65,-98,-135,-121,-120,-93,RIGHT
5.2125,-11,-5,10,0,17,6,9,-22,-17,-19,-10,17,-11,-2,-40,-34,-36,-34,-23,-25,-7,8,10,10,-8,-9,23,19,6,-11,2,6,17,25,27,20,14,20,-22,45,-31,43,-3,-16,-36,-12,-65,-50,-53,-48,-49,-40,-32,-25,-31,-71,-67,-71,-43,-62,-123,-115,-115,-70,RIGHT
5.21875,-18,-9,5,-6,15,6,17,-22,-15,-24,-10,13,-11,4,-32,-32,-32,-34,-26,-26,-5,11,8,11,-2,-4,25,28,14,3,5,14,15,24,32,23,31,24,-18,41,-7,-10,6,9,-36,-7,-64,-45,-52,-49,-54,-44,-38,-26,-25,-71,-66,-77,-41,-52,-92,-85,-77,-23,RIGHT
5.225,-9,-8,1,-16,10,1,13,-9,-11,-25,-20,-7,-27,-14,-30,-34,-37,-48,-44,-43,-24,-8,-7,-6,-25,-25,8,17,4,-6,-21,-5,4,10,16,13,21,12,-18,29,-11,-28,-2,10,-34,-24,-63,-47,-58,-57,-67,-60,-57,-45,-43,-68,-64,-82,-50,-58,-74,-69,-54,-5,RIGHT
5.23125,-22,-22,-12,-26,-10,-15,1,-20,-22,-37,-40,-20,-46,-31,-33,-44,-50,-65,-62,-62,-41,-43,-22,-14,-53,-52,-12,-4,-15,-27,-44,-19,-14,-7,-3,-7,12,10,-31,26,-8,-2,-13,-5,-16,-11,-43,-42,-55,-56,-69,-63,-61,-46,-37,-56,-59,-79,-50,-57,-69,-70,-58,-20,RIGHT
5.2375,-25,-29,-20,-30,-14,-16,12,-16,-27,-43,-40,-21,-40,-20,-19,-40,-51,-64,-55,-54,-29,-39,-25,-15,-45,-44,-8,-5,-12,-16,-29,-20,-12,-6,-1,-6,18,25,-14,32,11,15,15,-35,1,-1,-20,-35,-55,-64,-76,-71,-64,-45,-36,-59,-67,-93,-61,-70,-72,-77,-72,-32,RIGHT
5.24375,-31,-44,-38,-45,-26,-28,3,-29,-47,-65,-63,-40,-53,-27,-39,-64,-72,-88,-77,-74,-43,-31,-25,-17,-46,-45,-24,-17,-6,-24,-46,-44,-36,-32,-22,-26,-4,16,-31,26,-12,-31,-4,-10,-41,-46,-70,-71,-89,-99,-106,-103,-93,-75,-73,-84,-93,-124,-98,-102,-95,-105,-104,-51,RIGHT
5.25,-41,-60,-64,-71,-48,-42,-17,-33,-57,-82,-80,-53,-66,-48,-50,-76,-83,-98,-87,-89,-60,-39,-29,-26,-48,-47,-30,-22,-23,-22,-24,-37,-34,-33,-24,-22,6,14,-16,29,-15,-6,9,-13,-26,-38,-51,-49,-67,-77,-90,-86,-76,-61,-60,-58,-64,-99,-79,-79,-99,-113,-116,-41,RIGHT
5.25625,-6,-24,-25,-51,-23,-15,18,4,-15,-46,-46,-29,-34,-15,-15,-39,-51,-67,-60,-64,-31,-5,3,7,-15,-16,2,13,-4,8,-1,-11,4,2,6,10,45,36,12,46,16,31,30,-14,2,-19,-31,-33,-50,-63,-79,-74,-67,-53,-49,-50,-61,-92,-70,-76,-82,-95,-98,-14,RIGHT
5.2625,6,-16,-23,-43,-22,-17,14,2,-15,-52,-53,-39,-48,-26,-18,-43,-62,-79,-78,-86,-50,18,6,6,1,-1,0,16,13,10,-12,-26,-14,-18,-11,-11,13,28,-5,18,-4,-55,23,-10,3,-43,-36,-46,-69,-82,-97,-93,-87,-73,-66,-68,-76,-105,-85,-90,-80,-83,-80,-3,RIGHT
5.26875,-20,-43,-58,-83,-64,-53,-17,-28,-43,-81,-83,-60,-73,-51,-32,-61,-82,-93,-92,-97,-61,-2,12,13,-11,-12,-10,10,22,-3,-14,-39,-31,-37,-27,-24,-4,20,-7,12,13,-56,17,-7,-4,-39,-40,-50,-71,-87,-102,-103,-97,-87,-74,-76,-82,-115,-105,-118,-90,-92,-84,-11,RIGHT
5.275,-26,-50,-68,-96,-79,-65,-29,-25,-51,-95,-100,-78,-91,-68,-35,-69,-96,-111,-114,-118,-85,-25,-7,-6,-45,-44,-28,-13,-4,-35,-27,-58,-49,-55,-43,-38,-15,5,-25,-6,-12,-56,-11,-28,-37,-79,-66,-72,-95,-114,-131,-140,-133,-122,-116,-96,-105,-147,-140,-149,-112,-121,-114,-30,RIGHT
5.28125,-39,-65,-83,-106,-93,-77,-39,-36,-63,-104,-113,-95,-105,-81,-59,-76,-100,-119,-120,-125,-91,-14,-3,4,-31,-33,-27,-17,6,-22,-17,-52,-44,-51,-40,-37,-12,6,-20,2,-14,-27,11,-23,-17,-62,-56,-64,-76,-89,-101,-102,-91,-76,-70,-77,-80,-107,-83,-71,-112,-116,-103,-13,RIGHT
