Time,Fc5,Fc3,Fc1,Fcz,Fc2,Fc4,Fc6,C5,C3,C1,Cz,C2,C4,C6,Cp5,Cp3,Cp1,Cpz,Cp2,Cp4,Cp6,Fp1,Fpz,Fp2,Af7,Af3,Afz,Af4,Af8,F7,F5,F3,F1,Fz,F2,F4,F6,F8,Ft7,Ft8,T7,T8,T9,T10,Tp7,Tp8,P7,P5,P3,P1,Pz,P2,P4,P6,P8,Po7,Po3,Poz,Po4,Po8,O1,Oz,O2,Iz,Target
0.0,97.0,-45.0,-60.0,-51.0,-37.0,-110.0,-97.0,-15.0,-51.0,-41.0,-35.0,-21.0,-57.0,-110.0,-1.0,-51.0,-31.0,-42.0,-34.0,-50.0,24.0,-79.0,-53.0,-49.0,-74.0,-31.0,-23.0,-122.0,-24.0,-88.0,-17.0,-37.0,-23.0,-29.0,-40.0,-29.0,-45.0,-103.0,-33.0,-33.0,54.0,13.0,-12.0,-3.0,-31.0,-67.0,-74.0,-15.0,-2.0,25.0,12.0,9.0,1.0,9.0,-103.0,-22.0,22.0,14.0,8.0,-63.0,-18.0,20.0,14.0,-26.0,REST
0.0063,-30.0,-13.0,27.0,26.0,2.0,-40.0,-14.0,75.0,44.0,37.0,44.0,17.0,33.0,-36.0,-24.0,48.0,59.0,51.0,56.0,35.0,60.0,16.0,23.0,34.0,6.0,36.0,50.0,-17.0,37.0,-3.0,40.0,10.0,39.0,38.0,25.0,31.0,14.0,-43.0,-3.0,30.0,105.0,42.0,36.0,36.0,-18.0,-37.0,-34.0,23.0,32.0,50.0,30.0,21.0,8.0,27.0,-96.0,-1.0,30.0,13.0,-2.0,-32.0,-16.0,14.0,-1.0,-4.0,REST
0.0125,52.0,-32.0,-24.0,-20.0,-27.0,-85.0,-58.0,43.0,-13.0,-21.0,-13.0,-19.0,-46.0,-95.0,-24.0,-32.0,-11.0,-32.0,-30.0,-56.0,15.0,-46.0,-64.0,-62.0,-42.0,-71.0,-46.0,-103.0,-54.0,-87.0,-63.0,-61.0,-57.0,-68.0,-76.0,-59.0,-72.0,-138.0,-63.0,-82.0,34.0,-65.0,-76.0,-44.0,48.0,-141.0,-119.0,-53.0,-58.0,-25.0,-46.0,-60.0,-64.0,-41.0,-154.0,-64.0,-36.0,-16.0,-61.0,-15.0,23.0,-34.0,-48.0,-26.0,REST
0.0188,60.0,-63.0,-71.0,-54.0,-49.0,-100.0,-84.0,15.0,-44.0,-41.0,-24.0,-25.0,-41.0,-91.0,-47.0,-37.0,-15.0,-24.0,-7.0,-33.0,42.0,-40.0,-17.0,-20.0,9.0,-35.0,1.0,-51.0,-51.0,-48.0,-15.0,-23.0,-3.0,2.0,3.0,10.0,24.0,-96.0,17.0,2.0,89.0,25.0,21.0,53.0,-76.0,-31.0,-29.0,1.0,20.0,43.0,33.0,36.0,26.0,33.0,-56.0,7.0,40.0,26.0,37.0,-79.0,-48.0,44.0,45.0,2.0,REST
0.025,-40.0,-19.0,27.0,38.0,10.0,-22.0,-20.0,62.0,20.0,16.0,39.0,15.0,32.0,-30.0,-44.0,16.0,30.0,31.0,42.0,18.0,58.0,-2.0,30.0,43.0,-6.0,16.0,32.0,-49.0,-27.0,-60.0,19.0,-2.0,7.0,11.0,-2.0,-3.0,-48.0,-70.0,-22.0,-5.0,46.0,-1.0,3.0,36.0,-33.0,-64.0,-85.0,-47.0,-30.0,-3.0,-16.0,-22.0,-26.0,-13.0,-111.0,-60.0,-21.0,-8.0,-40.0,-37.0,-6.0,-21.0,-38.0,-18.0,REST
0.0312,69.0,-68.0,-70.0,-52.0,-51.0,-96.0,-105.0,-37.0,-86.0,-70.0,-52.0,-33.0,-73.0,-106.0,-31.0,-92.0,-65.0,-67.0,-59.0,-79.0,8.0,-97.0,-81.0,-76.0,-111.0,-81.0,-49.0,-107.0,-77.0,-143.0,-67.0,-62.0,-65.0,-65.0,-74.0,-62.0,-107.0,-131.0,-99.0,-54.0,-23.0,-33.0,-50.0,-17.0,-31.0,-118.0,-120.0,-78.0,-58.0,-22.0,-36.0,-40.0,-41.0,-20.0,-127.0,-61.0,-22.0,-7.0,-31.0,-78.0,-2.0,-9.0,-18.0,-29.0,REST
0.0375,-27.0,-57.0,-29.0,-14.0,-25.0,-48.0,-63.0,4.0,-24.0,-13.0,4.0,0.0,-1.0,-47.0,-47.0,-13.0,11.0,14.0,30.0,8.0,55.0,-7.0,16.0,52.0,-15.0,-15.0,30.0,-21.0,30.0,-41.0,-5.0,1.0,13.0,31.0,25.0,32.0,31.0,-55.0,4.0,52.0,72.0,63.0,47.0,52.0,-97.0,-31.0,-9.0,8.0,36.0,63.0,45.0,45.0,37.0,52.0,-58.0,13.0,47.0,30.0,38.0,-113.0,-33.0,46.0,41.0,8.0,REST
0.0438,-35.0,-23.0,16.0,25.0,4.0,-21.0,-36.0,35.0,6.0,3.0,21.0,7.0,12.0,-27.0,-26.0,-6.0,14.0,6.0,14.0,-8.0,48.0,-46.0,-29.0,-10.0,-65.0,-47.0,-11.0,-69.0,-42.0,-58.0,-33.0,-31.0,-40.0,-34.0,-42.0,-14.0,-15.0,-166.0,-54.0,-39.0,-1.0,-46.0,-33.0,-23.0,21.0,-120.0,-93.0,-41.0,-52.0,-13.0,-40.0,-52.0,-54.0,-33.0,-144.0,-77.0,-39.0,-18.0,-61.0,-56.0,30.0,-37.0,-56.0,-26.0,REST
0.05,56.0,-67.0,-80.0,-67.0,-58.0,-114.0,-120.0,-30.0,-73.0,-65.0,-51.0,-42.0,-70.0,-81.0,-24.0,-70.0,-48.0,-56.0,-46.0,-64.0,5.0,-114.0,-97.0,-101.0,-108.0,-76.0,-43.0,-108.0,-143.0,-72.0,-54.0,-59.0,-54.0,-47.0,-52.0,-36.0,-87.0,-119.0,-68.0,-43.0,11.0,-4.0,0.0,23.0,-64.0,-58.0,-73.0,-9.0,-10.0,24.0,3.0,0.0,-6.0,16.0,-89.0,-13.0,15.0,12.0,14.0,-99.0,-13.0,26.0,27.0,-6.0,REST
0.0563,-66.0,-23.0,22.0,22.0,10.0,-36.0,-31.0,59.0,33.0,29.0,38.0,13.0,36.0,17.0,-46.0,37.0,50.0,46.0,53.0,32.0,17.0,4.0,20.0,-2.0,-8.0,14.0,41.0,3.0,-34.0,-4.0,7.0,-4.0,22.0,35.0,27.0,26.0,-36.0,-54.0,10.0,33.0,73.0,77.0,47.0,90.0,-108.0,-12.0,-50.0,3.0,27.0,53.0,25.0,18.0,8.0,29.0,-82.0,8.0,23.0,18.0,6.0,-65.0,-6.0,22.0,9.0,7.0,REST
0.0625,36.0,-29.0,-10.0,-6.0,1.0,-73.0,-78.0,18.0,-19.0,-20.0,-10.0,-13.0,-35.0,-63.0,-49.0,-36.0,-16.0,-29.0,-32.0,-58.0,-21.0,-73.0,-53.0,-70.0,-78.0,-64.0,-35.0,-86.0,-84.0,-100.0,-77.0,-63.0,-59.0,-54.0,-62.0,-44.0,-76.0,-165.0,-54.0,-54.0,3.0,-36.0,-40.0,12.0,-7.0,-131.0,-121.0,-72.0,-56.0,-13.0,-46.0,-60.0,-66.0,-46.0,-150.0,-60.0,-35.0,-11.0,-55.0,-52.0,26.0,-32.0,-52.0,-43.0,REST
0.0688,35.0,-60.0,-52.0,-43.0,-19.0,-99.0,-100.0,-2.0,-45.0,-33.0,-20.0,-18.0,-35.0,-59.0,-58.0,-31.0,-14.0,-15.0,-7.0,-28.0,25.0,-68.0,-30.0,-5.0,-10.0,-22.0,4.0,-71.0,-7.0,-8.0,-51.0,-28.0,-6.0,10.0,6.0,18.0,16.0,-95.0,-6.0,6.0,87.0,42.0,39.0,77.0,-74.0,-27.0,-11.0,12.0,38.0,68.0,49.0,45.0,37.0,44.0,-54.0,25.0,56.0,46.0,59.0,-109.0,-27.0,55.0,56.0,-12.0,REST
0.075,-79.0,-11.0,43.0,50.0,52.0,0.0,18.0,61.0,35.0,35.0,54.0,33.0,55.0,33.0,-57.0,37.0,44.0,50.0,60.0,37.0,44.0,-23.0,5.0,32.0,-6.0,18.0,29.0,-41.0,33.0,17.0,-41.0,-7.0,1.0,11.0,3.0,10.0,-4.0,-112.0,-33.0,-8.0,50.0,30.0,3.0,67.0,-26.0,-42.0,-62.0,-15.0,-8.0,23.0,1.0,-8.0,-6.0,5.0,-102.0,-37.0,-8.0,16.0,-12.0,-41.0,26.0,3.0,-13.0,-27.0,REST
0.0813,12.0,-65.0,-68.0,-49.0,-22.0,-87.0,-76.0,-31.0,-74.0,-62.0,-43.0,-27.0,-59.0,-59.0,-73.0,-77.0,-58.0,-59.0,-46.0,-67.0,-17.0,-118.0,-103.0,-102.0,-112.0,-80.0,-67.0,-114.0,-121.0,-91.0,-133.0,-82.0,-84.0,-78.0,-79.0,-63.0,-89.0,-168.0,-51.0,-54.0,-36.0,-26.0,-61.0,6.0,-32.0,-91.0,-129.0,-70.0,-51.0,-10.0,-33.0,-33.0,-32.0,-4.0,-106.0,-45.0,-25.0,3.0,-15.0,-68.0,18.0,15.0,-1.0,-37.0,REST
0.0875,-65.0,-59.0,-34.0,-20.0,-12.0,-48.0,-55.0,19.0,-19.0,-13.0,4.0,-4.0,6.0,-15.0,-84.0,-7.0,8.0,13.0,32.0,13.0,12.0,-22.0,0.0,-25.0,-41.0,-9.0,18.0,-24.0,1.0,-12.0,-43.0,-23.0,4.0,21.0,23.0,22.0,-2.0,-30.0,50.0,47.0,44.0,62.0,27.0,80.0,-90.0,-3.0,-51.0,-13.0,34.0,64.0,39.0,51.0,41.0,77.0,-33.0,37.0,40.0,31.0,45.0,-89.0,-14.0,68.0,54.0,1.0,REST
0.0938,-59.0,-32.0,7.0,18.0,18.0,-10.0,-27.0,32.0,-3.0,-7.0,10.0,1.0,11.0,-11.0,-73.0,-18.0,-1.0,-2.0,5.0,-10.0,-26.0,-54.0,-45.0,-53.0,-99.0,-52.0,-31.0,-87.0,-68.0,-93.0,-85.0,-59.0,-54.0,-51.0,-49.0,-36.0,-59.0,-96.0,-67.0,-77.0,-32.0,-16.0,-64.0,29.0,2.0,-96.0,-130.0,-91.0,-54.0,-15.0,-50.0,-46.0,-54.0,-10.0,-139.0,-37.0,-40.0,-14.0,-59.0,-8.0,59.0,-14.0,-40.0,-18.0,REST
0.1,21.0,-93.0,-106.0,-83.0,-54.0,-87.0,-106.0,-40.0,-95.0,-84.0,-70.0,-51.0,-85.0,-77.0,-96.0,-93.0,-68.0,-72.0,-62.0,-77.0,-60.0,-118.0,-116.0,-115.0,-121.0,-105.0,-75.0,-118.0,-77.0,-112.0,-143.0,-109.0,-86.0,-74.0,-67.0,-56.0,-63.0,-116.0,-63.0,-68.0,-41.0,-11.0,-46.0,68.0,-81.0,-83.0,-83.0,-60.0,-11.0,18.0,-8.0,7.0,-8.0,15.0,-100.0,20.0,13.0,20.0,13.0,-64.0,14.0,43.0,41.0,3.0,REST
0.1063,-107.0,-58.0,-23.0,-8.0,-7.0,-10.0,-36.0,49.0,7.0,3.0,22.0,-2.0,15.0,-2.0,-106.0,18.0,29.0,31.0,42.0,21.0,-8.0,-26.0,-2.0,25.0,-16.0,-22.0,1.0,-63.0,26.0,-37.0,-56.0,-56.0,-17.0,2.0,-3.0,-7.0,-22.0,-46.0,18.0,18.0,52.0,14.0,26.0,110.0,-51.0,-25.0,-33.0,-12.0,35.0,49.0,28.0,36.0,20.0,38.0,-73.0,33.0,20.0,27.0,17.0,-52.0,10.0,39.0,27.0,1.0,REST
0.1125,-12.0,-51.0,-40.0,-26.0,-8.0,-39.0,-71.0,17.0,-26.0,-25.0,-12.0,-12.0,-27.0,-39.0,-51.0,-35.0,-22.0,-28.0,-26.0,-45.0,-33.0,-99.0,-80.0,-69.0,-88.0,-83.0,-64.0,-120.0,-74.0,-135.0,-105.0,-91.0,-82.0,-78.0,-81.0,-74.0,-103.0,-154.0,-78.0,-61.0,-16.0,-72.0,-49.0,21.0,28.0,-108.0,-122.0,-79.0,-51.0,-25.0,-48.0,-50.0,-54.0,-36.0,-139.0,-42.0,-51.0,-17.0,-56.0,-49.0,37.0,-20.0,-41.0,-42.0,REST
0.1187,5.0,-69.0,-71.0,-58.0,-26.0,-74.0,-90.0,-6.0,-47.0,-37.0,-27.0,-23.0,-30.0,-46.0,-71.0,-37.0,-22.0,-23.0,-14.0,-31.0,-28.0,-64.0,-48.0,-40.0,-56.0,-49.0,-31.0,-106.0,-22.0,-51.0,-54.0,-58.0,-26.0,-18.0,-18.0,-21.0,-25.0,-142.0,-18.0,6.0,40.0,44.0,32.0,85.0,-113.0,-32.0,-49.0,-16.0,24.0,45.0,24.0,35.0,29.0,32.0,-60.0,31.0,22.0,13.0,35.0,-116.0,-30.0,52.0,46.0,-12.0,REST
0.125,-81.0,-23.0,22.0,24.0,33.0,2.0,-10.0,53.0,22.0,18.0,33.0,14.0,44.0,3.0,-106.0,15.0,24.0,30.0,41.0,23.0,-4.0,-17.0,6.0,10.0,-1.0,-7.0,5.0,-66.0,-59.0,14.0,-21.0,-29.0,-11.0,-6.0,-5.0,-5.0,14.0,-125.0,-25.0,-4.0,29.0,61.0,6.0,76.0,-31.0,-53.0,-100.0,-50.0,-32.0,-3.0,-26.0,-19.0,-15.0,-4.0,-104.0,-39.0,-42.0,-20.0,-35.0,-69.0,4.0,-14.0,-37.0,-28.0,REST
0.1313,31.0,-76.0,-81.0,-71.0,-29.0,-82.0,-105.0,-36.0,-92.0,-82.0,-66.0,-43.0,-60.0,-94.0,-93.0,-106.0,-84.0,-81.0,-64.0,-79.0,-41.0,-110.0,-100.0,-99.0,-103.0,-99.0,-81.0,-157.0,-56.0,-89.0,-100.0,-87.0,-91.0,-90.0,-93.0,-97.0,-135.0,-112.0,-105.0,-60.0,-13.0,-10.0,-48.0,6.0,-18.0,-113.0,-147.0,-91.0,-80.0,-44.0,-62.0,-55.0,-49.0,-32.0,-129.0,-62.0,-56.0,-33.0,-42.0,-118.0,-12.0,-18.0,-33.0,-43.0,REST
0.1375,-44.0,-75.0,-54.0,-46.0,-25.0,-64.0,-87.0,1.0,-42.0,-35.0,-21.0,-28.0,-16.0,-44.0,-68.0,-31.0,-15.0,-11.0,8.0,-13.0,-22.0,-32.0,-1.0,-2.0,0.0,-19.0,-4.0,-93.0,62.0,26.0,-30.0,-30.0,-2.0,8.0,2.0,-18.0,-97.0,6.0,-24.0,37.0,84.0,80.0,60.0,79.0,-71.0,-15.0,-19.0,-1.0,29.0,51.0,24.0,32.0,27.0,34.0,-71.0,20.0,32.0,14.0,29.0,-128.0,-33.0,48.0,35.0,11.0,REST
0.1438,0.0,-32.0,6.0,17.0,20.0,-18.0,-42.0,33.0,3.0,4.0,15.0,-3.0,-8.0,-27.0,-32.0,-5.0,11.0,0.0,1.0,-22.0,-21.0,-50.0,-23.0,-37.0,-9.0,-42.0,-24.0,-110.0,-79.0,-1.0,-80.0,-62.0,-38.0,-40.0,-45.0,-43.0,-84.0,-89.0,-92.0,-43.0,3.0,10.0,-31.0,18.0,51.0,-96.0,-103.0,-66.0,-45.0,-7.0,-47.0,-49.0,-48.0,-30.0,-145.0,-51.0,-37.0,-17.0,-56.0,-45.0,34.0,-21.0,-49.0,-15.0,REST
0.15,85.0,-82.0,-91.0,-65.0,-37.0,-107.0,-133.0,-47.0,-79.0,-60.0,-50.0,-39.0,-83.0,-83.0,-39.0,-70.0,-44.0,-57.0,-54.0,-71.0,-27.0,-95.0,-88.0,-124.0,-116.0,-79.0,-53.0,-107.0,-74.0,-43.0,-108.0,-88.0,-51.0,-48.0,-52.0,-51.0,-86.0,-105.0,-63.0,-44.0,-19.0,30.0,-39.0,39.0,-61.0,-70.0,-94.0,-47.0,-9.0,23.0,-5.0,1.0,-4.0,8.0,-86.0,0.0,13.0,6.0,10.0,-118.0,-16.0,30.0,18.0,-18.0,REST
0.1562,-54.0,-35.0,11.0,27.0,25.0,-25.0,-41.0,42.0,23.0,27.0,37.0,14.0,26.0,5.0,-52.0,31.0,44.0,43.0,49.0,26.0,20.0,-7.0,23.0,-6.0,-64.0,16.0,39.0,-5.0,18.0,39.0,-21.0,-23.0,30.0,40.0,29.0,29.0,-2.0,-68.0,15.0,33.0,41.0,60.0,8.0,67.0,-60.0,-26.0,-46.0,-4.0,30.0,53.0,24.0,29.0,18.0,30.0,-74.0,8.0,28.0,16.0,10.0,-100.0,-7.0,23.0,10.0,-3.0,REST
0.1625,26.0,-36.0,-17.0,2.0,17.0,-40.0,-64.0,7.0,-26.0,-16.0,-9.0,-3.0,-22.0,-17.0,-32.0,-39.0,-20.0,-29.0,-23.0,-45.0,-17.0,-95.0,-59.0,-56.0,-105.0,-57.0,-42.0,-130.0,-82.0,-82.0,-88.0,-75.0,-53.0,-55.0,-72.0,-56.0,-83.0,-143.0,-84.0,-44.0,-18.0,-29.0,-60.0,-21.0,71.0,-112.0,-128.0,-78.0,-61.0,-20.0,-51.0,-52.0,-54.0,-35.0,-152.0,-72.0,-44.0,-18.0,-53.0,-69.0,21.0,-39.0,-50.0,-47.0,REST
0.1688,35.0,-65.0,-65.0,-44.0,-22.0,-83.0,-126.0,-14.0,-53.0,-32.0,-25.0,-15.0,-31.0,-18.0,-50.0,-40.0,-22.0,-24.0,-6.0,-25.0,-12.0,-95.0,-59.0,-38.0,-76.0,-34.0,-20.0,-92.0,-30.0,-50.0,-34.0,-48.0,-6.0,-1.0,-11.0,-2.0,-42.0,-72.0,-29.0,39.0,76.0,72.0,32.0,82.0,-27.0,-27.0,-31.0,-5.0,34.0,59.0,41.0,50.0,45.0,52.0,-64.0,18.0,41.0,32.0,58.0,-121.0,-40.0,47.0,50.0,-15.0,REST
0.175,-58.0,-7.0,46.0,60.0,52.0,4.0,-48.0,70.0,46.0,56.0,67.0,48.0,74.0,59.0,-43.0,49.0,59.0,61.0,76.0,57.0,22.0,3.0,4.0,12.0,-35.0,5.0,30.0,-6.0,21.0,32.0,-4.0,-12.0,23.0,26.0,17.0,30.0,-3.0,-42.0,-14.0,9.0,69.0,42.0,7.0,52.0,40.0,-54.0,-58.0,-14.0,10.0,35.0,11.0,8.0,8.0,25.0,-96.0,-24.0,-2.0,13.0,-5.0,-71.0,13.0,-5.0,-20.0,-30.0,REST
0.1813,48.0,-46.0,-45.0,-24.0,-3.0,-65.0,-114.0,-1.0,-49.0,-29.0,-23.0,-7.0,-37.0,-27.0,-29.0,-56.0,-34.0,-41.0,-33.0,-53.0,-41.0,-97.0,-86.0,-92.0,-97.0,-88.0,-54.0,-109.0,-72.0,-54.0,-78.0,-72.0,-59.0,-58.0,-71.0,-55.0,-71.0,-131.0,-71.0,-62.0,-10.0,-40.0,-69.0,-33.0,22.0,-129.0,-116.0,-55.0,-41.0,-5.0,-33.0,-36.0,-33.0,-8.0,-115.0,-43.0,-19.0,-9.0,-17.0,-108.0,-2.0,-15.0,-16.0,-56.0,REST
0.1875,-48.0,-47.0,-27.0,-13.0,-13.0,-54.0,-104.0,29.0,-13.0,-4.0,3.0,-11.0,-12.0,-7.0,-51.0,-2.0,12.0,11.0,25.0,1.0,-26.0,-59.0,-4.0,-28.0,-16.0,-2.0,22.0,-64.0,5.0,22.0,3.0,-13.0,20.0,31.0,17.0,14.0,2.0,-45.0,-3.0,23.0,78.0,85.0,40.0,49.0,-50.0,-23.0,-43.0,18.0,45.0,65.0,40.0,46.0,43.0,56.0,-42.0,34.0,45.0,27.0,53.0,-118.0,-38.0,43.0,50.0,-13.0,REST
0.1938,-53.0,-12.0,22.0,34.0,26.0,-19.0,-66.0,43.0,14.0,15.0,26.0,8.0,7.0,-3.0,-37.0,5.0,18.0,13.0,20.0,-5.0,-25.0,-34.0,-16.0,-30.0,-49.0,-18.0,5.0,-73.0,14.0,-34.0,-33.0,-26.0,-12.0,-13.0,-22.0,-15.0,-40.0,-86.0,-51.0,-36.0,8.0,43.0,-22.0,-20.0,94.0,-72.0,-139.0,-44.0,-33.0,4.0,-30.0,-33.0,-32.0,-19.0,-119.0,-51.0,-30.0,-2.0,-39.0,-56.0,27.0,-30.0,-43.0,-46.0,REST
0.2,61.0,-45.0,-55.0,-35.0,-7.0,-70.0,-104.0,-19.0,-55.0,-36.0,-27.0,-14.0,-51.0,-48.0,-44.0,-53.0,-32.0,-36.0,-30.0,-52.0,-47.0,-58.0,-55.0,-69.0,-119.0,-43.0,-8.0,-83.0,4.0,-98.0,-40.0,-42.0,-12.0,-6.0,-15.0,-15.0,-79.0,-102.0,-38.0,-15.0,14.0,33.0,-4.0,-2.0,13.0,-56.0,-103.0,-20.0,3.0,40.0,12.0,18.0,10.0,12.0,-86.0,-6.0,25.0,26.0,28.0,-119.0,-21.0,26.0,31.0,-40.0,REST
0.2063,-73.0,-4.0,47.0,58.0,55.0,20.0,-29.0,61.0,44.0,51.0,62.0,39.0,59.0,35.0,-60.0,46.0,59.0,63.0,70.0,45.0,10.0,-1.0,43.0,26.0,-44.0,40.0,68.0,-13.0,-16.0,14.0,33.0,8.0,53.0,69.0,52.0,47.0,-26.0,-23.0,-15.0,38.0,77.0,71.0,52.0,44.0,-23.0,-22.0,-80.0,6.0,34.0,62.0,32.0,35.0,23.0,29.0,-74.0,13.0,30.0,27.0,24.0,-73.0,-20.0,18.0,18.0,-17.0,REST
0.2125,-14.0,-29.0,1.0,18.0,27.0,-32.0,-79.0,17.0,-15.0,-5.0,6.0,2.0,-13.0,-11.0,-31.0,-30.0,-14.0,-19.0,-14.0,-40.0,-6.0,-65.0,-45.0,-16.0,-52.0,-51.0,-32.0,-130.0,-96.0,-21.0,-87.0,-63.0,-45.0,-43.0,-55.0,-39.0,-77.0,-121.0,-96.0,-55.0,-23.0,-32.0,-56.0,-52.0,49.0,-109.0,-178.0,-74.0,-53.0,-21.0,-50.0,-56.0,-56.0,-36.0,-133.0,-54.0,-40.0,-13.0,-49.0,-32.0,20.0,-37.0,-50.0,-43.0,REST
0.2188,-14.0,-60.0,-51.0,-32.0,-14.0,-67.0,-72.0,5.0,-42.0,-27.0,-16.0,-16.0,-15.0,-12.0,-36.0,-31.0,-20.0,-20.0,-3.0,-29.0,13.0,-22.0,-28.0,-10.0,-30.0,-33.0,4.0,-59.0,-10.0,-5.0,-51.0,-33.0,-2.0,11.0,15.0,22.0,20.0,-29.0,15.0,33.0,22.0,33.0,0.0,16.0,-54.0,-30.0,-79.0,-11.0,30.0,46.0,28.0,32.0,25.0,36.0,-44.0,16.0,33.0,22.0,36.0,-93.0,-50.0,37.0,35.0,-19.0,REST
0.225,-88.0,1.0,51.0,58.0,46.0,17.0,32.0,87.0,43.0,39.0,52.0,24.0,56.0,48.0,-61.0,35.0,43.0,41.0,53.0,24.0,39.0,3.0,24.0,-8.0,-13.0,11.0,53.0,31.0,-32.0,8.0,11.0,3.0,21.0,33.0,42.0,54.0,80.0,-32.0,23.0,5.0,10.0,22.0,-18.0,11.0,39.0,-69.0,-116.0,-35.0,-15.0,8.0,-17.0,-19.0,-25.0,-16.0,-100.0,-45.0,-25.0,-10.0,-36.0,-11.0,-11.0,-26.0,-39.0,-36.0,REST
0.2313,35.0,-46.0,-52.0,-37.0,-18.0,-70.0,-75.0,-11.0,-67.0,-63.0,-46.0,-40.0,-67.0,-45.0,-56.0,-80.0,-56.0,-68.0,-57.0,-82.0,-1.0,-114.0,-84.0,-122.0,-107.0,-71.0,-39.0,-116.0,-130.0,-68.0,-100.0,-75.0,-65.0,-62.0,-59.0,-45.0,-49.0,-124.0,-72.0,-110.0,-22.0,-34.0,-67.0,-37.0,48.0,-129.0,-148.0,-73.0,-57.0,-26.0,-50.0,-49.0,-52.0,-46.0,-137.0,-51.0,-32.0,-17.0,-30.0,-20.0,-4.0,-14.0,-25.0,-38.0,REST
0.2375,-63.0,-61.0,-40.0,-26.0,-21.0,-70.0,-90.0,4.0,-32.0,-29.0,-10.0,-29.0,-19.0,-15.0,-67.0,-14.0,7.0,-1.0,17.0,-7.0,38.0,-26.0,-7.0,9.0,-33.0,5.0,19.0,-90.0,77.0,28.0,-54.0,-39.0,6.0,17.0,7.0,-7.0,-56.0,-36.0,21.0,4.0,60.0,30.0,31.0,32.0,-69.0,-17.0,-41.0,2.0,38.0,52.0,35.0,40.0,30.0,33.0,-69.0,30.0,42.0,23.0,42.0,-52.0,-39.0,44.0,35.0,-5.0,REST
0.2438,-65.0,-34.0,8.0,23.0,17.0,-35.0,-40.0,28.0,-4.0,-1.0,16.0,-5.0,6.0,27.0,-37.0,-5.0,17.0,4.0,12.0,-15.0,31.0,-34.0,-30.0,-5.0,-68.0,-37.0,-15.0,-108.0,16.0,-18.0,-63.0,-67.0,-36.0,-36.0,-53.0,-59.0,-99.0,-90.0,-39.0,-23.0,-16.0,-53.0,-30.0,-57.0,45.0,-83.0,-128.0,-54.0,-45.0,-18.0,-44.0,-51.0,-55.0,-47.0,-153.0,-45.0,-41.0,-22.0,-64.0,-13.0,19.0,-49.0,-69.0,-46.0,REST
0.25,76.0,-70.0,-82.0,-58.0,-36.0,-106.0,-109.0,-27.0,-76.0,-60.0,-48.0,-40.0,-72.0,-40.0,-17.0,-69.0,-45.0,-53.0,-46.0,-74.0,13.0,-90.0,-70.0,-30.0,-110.0,-76.0,-46.0,-100.0,-63.0,-40.0,-61.0,-79.0,-48.0,-44.0,-53.0,-51.0,-64.0,-104.0,-52.0,-8.0,-36.0,26.0,-22.0,-37.0,-39.0,-59.0,-111.0,-39.0,-14.0,13.0,-10.0,-3.0,-10.0,-16.0,-105.0,5.0,5.0,6.0,5.0,-69.0,-25.0,6.0,10.0,-28.0,REST
0.2563,-46.0,-27.0,13.0,24.0,11.0,-22.0,-27.0,58.0,23.0,20.0,36.0,6.0,25.0,13.0,-36.0,29.0,41.0,41.0,52.0,27.0,52.0,-16.0,17.0,30.0,-42.0,19.0,30.0,-3.0,-20.0,38.0,1.0,-18.0,24.0,27.0,15.0,16.0,4.0,-67.0,-11.0,31.0,9.0,84.0,19.0,30.0,-72.0,-24.0,-87.0,-12.0,24.0,36.0,16.0,26.0,16.0,1.0,-100.0,14.0,16.0,18.0,10.0,-23.0,-15.0,8.0,6.0,-13.0,REST
0.2625,23.0,-38.0,-23.0,-10.0,-7.0,-43.0,-70.0,16.0,-26.0,-31.0,-13.0,-17.0,-24.0,-17.0,-13.0,-37.0,-22.0,-30.0,-20.0,-36.0,7.0,-96.0,-90.0,-91.0,-118.0,-60.0,-55.0,-93.0,-107.0,-76.0,-61.0,-60.0,-59.0,-71.0,-80.0,-61.0,-51.0,-156.0,-81.0,-74.0,-60.0,-44.0,-67.0,-63.0,62.0,-109.0,-161.0,-75.0,-55.0,-32.0,-49.0,-46.0,-48.0,-56.0,-146.0,-64.0,-42.0,-11.0,-51.0,13.0,27.0,-45.0,-49.0,-44.0,REST
0.2687,61.0,-64.0,-65.0,-49.0,-24.0,-64.0,-91.0,-1.0,-45.0,-42.0,-26.0,-16.0,-15.0,-6.0,-23.0,-31.0,-16.0,-17.0,-1.0,-15.0,15.0,-58.0,-67.0,-107.0,-45.0,-27.0,-13.0,-41.0,-49.0,-26.0,-46.0,-26.0,-10.0,-7.0,-7.0,1.0,25.0,-88.0,-2.0,-5.0,14.0,33.0,16.0,22.0,3.0,-13.0,-64.0,-14.0,32.0,43.0,32.0,42.0,34.0,21.0,-58.0,14.0,34.0,26.0,39.0,-70.0,-40.0,24.0,41.0,-13.0,REST
0.275,-22.0,-19.0,31.0,44.0,37.0,18.0,38.0,63.0,36.0,27.0,46.0,24.0,59.0,63.0,-38.0,35.0,44.0,44.0,53.0,36.0,39.0,5.0,6.0,-20.0,3.0,6.0,21.0,-11.0,-66.0,3.0,-26.0,-5.0,7.0,7.0,1.0,10.0,27.0,-67.0,-16.0,-1.0,-6.0,23.0,-23.0,20.0,60.0,-40.0,-109.0,-44.0,-11.0,1.0,-16.0,-11.0,-16.0,-17.0,-108.0,-41.0,-32.0,-4.0,-31.0,-25.0,-3.0,-36.0,-36.0,-23.0,REST
0.2812,82.0,-62.0,-68.0,-42.0,-28.0,-73.0,-64.0,-29.0,-70.0,-67.0,-46.0,-38.0,-58.0,-24.0,-45.0,-72.0,-54.0,-62.0,-56.0,-69.0,-2.0,-102.0,-79.0,-53.0,-76.0,-87.0,-67.0,-114.0,-127.0,-80.0,-90.0,-61.0,-63.0,-73.0,-81.0,-72.0,-85.0,-109.0,-93.0,-25.0,-70.0,-33.0,-91.0,-25.0,33.0,-82.0,-143.0,-65.0,-49.0,-35.0,-46.0,-36.0,-41.0,-35.0,-114.0,-51.0,-50.0,-12.0,-24.0,-46.0,-6.0,-27.0,-17.0,-32.0,REST
0.2875,-7.0,-49.0,-26.0,-10.0,-16.0,-50.0,-70.0,24.0,-15.0,-14.0,1.0,-18.0,0.0,7.0,-45.0,2.0,12.0,11.0,22.0,10.0,36.0,3.0,19.0,33.0,3.0,4.0,29.0,8.0,43.0,2.0,-14.0,15.0,37.0,38.0,34.0,30.0,27.0,-11.0,21.0,64.0,31.0,65.0,17.0,56.0,-78.0,20.0,-47.0,15.0,41.0,41.0,33.0,46.0,34.0,30.0,-30.0,13.0,10.0,18.0,41.0,-71.0,-57.0,22.0,41.0,-12.0,REST
0.2938,-4.0,-14.0,32.0,35.0,24.0,-4.0,-1.0,60.0,18.0,12.0,20.0,-1.0,16.0,22.0,-8.0,4.0,10.0,4.0,6.0,-8.0,11.0,0.0,-5.0,-26.0,-34.0,-20.0,1.0,-50.0,33.0,-27.0,-51.0,-5.0,-10.0,-21.0,-27.0,-26.0,-24.0,-125.0,-16.0,-45.0,-23.0,-26.0,-41.0,-27.0,45.0,-76.0,-142.0,-63.0,-55.0,-38.0,-53.0,-56.0,-62.0,-55.0,-115.0,-83.0,-77.0,-27.0,-71.0,-29.0,-1.0,-70.0,-70.0,-61.0,REST
0.3,76.0,-70.0,-74.0,-65.0,-37.0,-83.0,-76.0,-17.0,-71.0,-61.0,-53.0,-45.0,-66.0,-43.0,-18.0,-71.0,-60.0,-61.0,-56.0,-70.0,-25.0,-71.0,-68.0,-84.0,-97.0,-64.0,-38.0,-88.0,-77.0,-38.0,-82.0,-44.0,-36.0,-40.0,-34.0,-25.0,3.0,-152.0,-13.0,-36.0,-25.0,-8.0,-23.0,-10.0,-10.0,-52.0,-116.0,-40.0,-17.0,3.0,-7.0,-1.0,-13.0,-12.0,-83.0,-26.0,-14.0,13.0,4.0,-67.0,-29.0,5.0,16.0,-24.0,REST
0.3063,-43.0,-25.0,23.0,29.0,28.0,9.0,5.0,69.0,30.0,30.0,46.0,20.0,43.0,40.0,-31.0,37.0,43.0,52.0,55.0,38.0,26.0,-5.0,20.0,-3.0,-39.0,39.0,53.0,32.0,-23.0,39.0,32.0,23.0,43.0,48.0,52.0,48.0,66.0,-43.0,47.0,47.0,20.0,24.0,24.0,37.0,-26.0,-22.0,-62.0,1.0,31.0,49.0,29.0,34.0,18.0,16.0,-82.0,-7.0,4.0,25.0,12.0,-23.0,-20.0,13.0,16.0,5.0,REST
0.3125,76.0,-12.0,4.0,12.0,19.0,-36.0,-27.0,40.0,-6.0,-7.0,8.0,3.0,-8.0,12.0,-8.0,-24.0,-5.0,-11.0,-14.0,-30.0,12.0,-78.0,-59.0,-69.0,-163.0,-23.0,-25.0,-63.0,-83.0,-64.0,22.0,-24.0,-33.0,-44.0,-51.0,-54.0,-86.0,-112.0,-26.0,-57.0,-59.0,-82.0,-72.0,-68.0,49.0,-113.0,-147.0,-77.0,-56.0,-17.0,-46.0,-51.0,-54.0,-41.0,-137.0,-84.0,-62.0,-16.0,-61.0,-15.0,17.0,-50.0,-54.0,-45.0,REST
0.3188,68.0,-43.0,-46.0,-31.0,-7.0,-83.0,-57.0,12.0,-37.0,-28.0,-14.0,-13.0,-28.0,-2.0,-22.0,-32.0,-8.0,-13.0,-3.0,-21.0,40.0,-35.0,-14.0,-17.0,-64.0,-14.0,4.0,-16.0,-111.0,-48.0,19.0,-27.0,10.0,11.0,8.0,7.0,11.0,-96.0,14.0,16.0,3.0,61.0,13.0,-4.0,-74.0,-14.0,-54.0,-16.0,24.0,55.0,36.0,39.0,32.0,35.0,-43.0,-6.0,20.0,23.0,31.0,-102.0,-45.0,27.0,35.0,-25.0,REST
0.325,-47.0,-15.0,39.0,58.0,50.0,10.0,19.0,59.0,33.0,34.0,56.0,34.0,58.0,52.0,-43.0,29.0,50.0,49.0,62.0,43.0,71.0,13.0,43.0,40.0,59.0,5.0,33.0,-10.0,17.0,8.0,-16.0,-27.0,20.0,16.0,1.0,5.0,-11.0,-49.0,10.0,12.0,-21.0,43.0,-18.0,26.0,-18.0,-46.0,-82.0,-40.0,-22.0,10.0,-8.0,-13.0,-14.0,-17.0,-98.0,-64.0,-41.0,-13.0,-42.0,-49.0,-7.0,-31.0,-43.0,-38.0,REST
0.3313,92.0,-70.0,-71.0,-42.0,-29.0,-66.0,-67.0,-42.0,-77.0,-65.0,-41.0,-23.0,-50.0,-43.0,-49.0,-85.0,-56.0,-61.0,-48.0,-61.0,12.0,-102.0,-94.0,-96.0,-71.0,-106.0,-72.0,-119.0,-5.0,-89.0,-100.0,-102.0,-73.0,-81.0,-93.0,-85.0,-127.0,-97.0,-63.0,-64.0,-81.0,-43.0,-90.0,-22.0,-23.0,-81.0,-121.0,-92.0,-71.0,-39.0,-48.0,-46.0,-42.0,-43.0,-126.0,-88.0,-62.0,-30.0,-48.0,-67.0,-22.0,-30.0,-40.0,-51.0,REST
0.3375,24.0,-65.0,-47.0,-26.0,-34.0,-40.0,-17.0,-7.0,-30.0,-26.0,-3.0,-5.0,8.0,-1.0,-56.0,-17.0,4.0,7.0,28.0,14.0,49.0,-26.0,-14.0,1.0,-27.0,-22.0,5.0,-25.0,25.0,-1.0,-22.0,-43.0,-2.0,11.0,5.0,4.0,-8.0,-37.0,23.0,25.0,9.0,55.0,13.0,25.0,-117.0,23.0,-37.0,-29.0,19.0,36.0,33.0,43.0,35.0,17.0,-76.0,-18.0,7.0,9.0,22.0,-92.0,-67.0,39.0,25.0,-4.0,REST
0.3438,-13.0,-33.0,8.0,22.0,3.0,6.0,25.0,34.0,4.0,-3.0,20.0,6.0,16.0,-3.0,-6.0,-7.0,17.0,10.0,17.0,-3.0,35.0,-62.0,-34.0,-40.0,-39.0,-20.0,-3.0,-12.0,-67.0,-25.0,-50.0,-53.0,-36.0,-32.0,-29.0,-12.0,1.0,-155.0,-42.0,-67.0,-70.0,-23.0,-64.0,-60.0,-26.0,-82.0,-131.0,-96.0,-67.0,-35.0,-48.0,-48.0,-55.0,-79.0,-168.0,-111.0,-75.0,-32.0,-80.0,-42.0,1.0,-31.0,-69.0,-29.0,REST
0.35,73.0,-75.0,-85.0,-63.0,-48.0,-71.0,-67.0,-26.0,-77.0,-70.0,-50.0,-34.0,-70.0,-62.0,16.0,-77.0,-44.0,-52.0,-44.0,-64.0,2.0,-88.0,-76.0,-60.0,-97.0,-58.0,-38.0,-74.0,-137.0,-71.0,-53.0,-67.0,-47.0,-46.0,-37.0,-30.0,-21.0,-152.0,-17.0,-39.0,-58.0,-12.0,-46.0,-60.0,-48.0,-59.0,-93.0,-68.0,-26.0,-2.0,-9.0,-1.0,-13.0,-33.0,-113.0,-65.0,-20.0,-5.0,-16.0,-107.0,-39.0,29.0,5.0,-18.0,REST
0.3563,-15.0,-29.0,13.0,27.0,12.0,1.0,-1.0,63.0,22.0,17.0,36.0,16.0,33.0,17.0,-2.0,28.0,44.0,46.0,54.0,33.0,43.0,42.0,34.0,32.0,-28.0,16.0,37.0,-13.0,-15.0,8.0,37.0,1.0,27.0,33.0,33.0,22.0,25.0,-16.0,55.0,52.0,18.0,37.0,13.0,-13.0,-8.0,-19.0,-42.0,-28.0,23.0,34.0,22.0,24.0,7.0,0.0,-95.0,-51.0,-1.0,2.0,-16.0,-95.0,-39.0,24.0,-5.0,5.0,REST
0.3625,98.0,-30.0,-12.0,5.0,6.0,-26.0,-18.0,30.0,-22.0,-25.0,-9.0,-5.0,-23.0,-36.0,10.0,-34.0,-17.0,-22.0,-23.0,-43.0,17.0,-45.0,-43.0,-56.0,-88.0,-54.0,-36.0,-77.0,-33.0,-86.0,-34.0,-44.0,-49.0,-53.0,-59.0,-52.0,-61.0,-77.0,-71.0,-79.0,-74.0,-59.0,-76.0,-65.0,63.0,-105.0,-127.0,-93.0,-60.0,-34.0,-52.0,-60.0,-70.0,-62.0,-162.0,-123.0,-62.0,-32.0,-87.0,-82.0,3.0,-50.0,-70.0,-37.0,REST
0.3688,101.0,-53.0,-55.0,-39.0,-26.0,-66.0,-55.0,5.0,-44.0,-41.0,-29.0,-20.0,-44.0,-28.0,15.0,-34.0,-17.0,-17.0,-14.0,-34.0,33.0,-39.0,-22.0,2.0,-43.0,-24.0,-2.0,-46.0,-23.0,-64.0,-2.0,-24.0,-3.0,4.0,-1.0,6.0,8.0,-51.0,7.0,3.0,-4.0,33.0,4.0,17.0,-52.0,-5.0,-45.0,-33.0,22.0,45.0,31.0,37.0,23.0,25.0,-55.0,-24.0,26.0,16.0,17.0,-127.0,-46.0,31.0,33.0,-6.0,REST
0.375,-21.0,-13.0,35.0,48.0,28.0,12.0,17.0,73.0,41.0,30.0,42.0,23.0,40.0,59.0,22.0,39.0,53.0,50.0,52.0,32.0,48.0,8.0,18.0,37.0,25.0,7.0,34.0,-17.0,-17.0,-23.0,-6.0,-12.0,12.0,15.0,11.0,23.0,58.0,-76.0,33.0,-3.0,21.0,17.0,-18.0,6.0,45.0,-39.0,-78.0,-60.0,-9.0,24.0,1.0,-3.0,-15.0,-8.0,-94.0,-55.0,-17.0,-2.0,-43.0,-53.0,8.0,-15.0,-37.0,-20.0,REST
0.3813,122.0,-48.0,-52.0,-31.0,-17.0,-58.0,-70.0,-6.0,-48.0,-50.0,-36.0,-20.0,-45.0,-6.0,33.0,-58.0,-32.0,-42.0,-44.0,-58.0,-15.0,-95.0,-84.0,-106.0,-88.0,-64.0,-37.0,-86.0,-106.0,-87.0,-72.0,-50.0,-51.0,-55.0,-52.0,-31.0,1.0,-101.0,-28.0,-64.0,-20.0,-56.0,-84.0,-55.0,74.0,-82.0,-99.0,-86.0,-39.0,1.0,-25.0,-29.0,-44.0,-33.0,-138.0,-67.0,-20.0,-8.0,-50.0,-85.0,6.0,-16.0,-37.0,-43.0,REST
0.3875,46.0,-34.0,-13.0,-2.0,10.0,-28.0,-48.0,33.0,1.0,-5.0,14.0,3.0,12.0,35.0,-2.0,10.0,25.0,24.0,28.0,11.0,6.0,-20.0,-2.0,-33.0,-22.0,22.0,43.0,16.0,41.0,-6.0,-7.0,-2.0,30.0,39.0,39.0,37.0,24.0,11.0,31.0,46.0,58.0,44.0,21.0,17.0,-10.0,2.0,-1.0,-19.0,38.0,63.0,42.0,45.0,22.0,32.0,-80.0,-16.0,36.0,16.0,8.0,-122.0,-56.0,24.0,15.0,-23.0,REST
0.3938,-9.0,-14.0,27.0,34.0,29.0,-11.0,-33.0,35.0,16.0,2.0,25.0,5.0,7.0,20.0,-28.0,0.0,14.0,9.0,8.0,-13.0,-3.0,-25.0,-15.0,4.0,-32.0,-12.0,-1.0,-42.0,10.0,-85.0,-54.0,-32.0,-21.0,-26.0,-38.0,-36.0,-76.0,-70.0,-31.0,-21.0,-31.0,-7.0,-53.0,-74.0,88.0,-75.0,-118.0,-93.0,-56.0,-18.0,-41.0,-49.0,-60.0,-35.0,-154.0,-107.0,-50.0,-22.0,-84.0,-62.0,6.0,-51.0,-69.0,-43.0,REST
0.4,84.0,-51.0,-65.0,-49.0,-33.0,-82.0,-88.0,-30.0,-59.0,-59.0,-41.0,-31.0,-63.0,-34.0,-30.0,-66.0,-49.0,-47.0,-42.0,-61.0,-10.0,-62.0,-55.0,-22.0,-101.0,-55.0,-29.0,-91.0,-56.0,-84.0,-65.0,-38.0,-29.0,-34.0,-36.0,-36.0,-42.0,-88.0,-6.0,-8.0,-21.0,25.0,-37.0,-54.0,-2.0,-28.0,-92.0,-53.0,-13.0,22.0,5.0,9.0,1.0,21.0,-97.0,-45.0,10.0,14.0,-4.0,-104.0,-20.0,25.0,22.0,-20.0,REST
0.4062,-62.0,-12.0,30.0,40.0,26.0,1.0,-16.0,64.0,41.0,32.0,49.0,25.0,44.0,48.0,-24.0,43.0,48.0,57.0,62.0,45.0,28.0,43.0,37.0,79.0,-21.0,15.0,50.0,5.0,15.0,25.0,3.0,11.0,35.0,43.0,46.0,42.0,43.0,27.0,46.0,35.0,56.0,58.0,40.0,7.0,-23.0,5.0,-30.0,-5.0,30.0,55.0,36.0,40.0,31.0,49.0,-77.0,-16.0,26.0,23.0,5.0,-65.0,-10.0,33.0,20.0,-7.0,REST
0.4125,3.0,-32.0,-11.0,5.0,12.0,-36.0,-78.0,14.0,-16.0,-19.0,-1.0,4.0,-10.0,9.0,22.0,-23.0,-14.0,-13.0,-12.0,-23.0,-10.0,-45.0,-49.0,-36.0,-61.0,-63.0,-34.0,-96.0,-62.0,-80.0,-84.0,-59.0,-54.0,-58.0,-52.0,-43.0,-80.0,-27.0,-61.0,-56.0,-13.0,-59.0,-59.0,-102.0,102.0,-71.0,-117.0,-69.0,-46.0,-7.0,-33.0,-35.0,-36.0,-15.0,-130.0,-65.0,-26.0,2.0,-51.0,-4.0,52.0,-23.0,-31.0,-27.0,REST
0.4188,12.0,-60.0,-57.0,-37.0,-14.0,-61.0,-74.0,-12.0,-42.0,-36.0,-16.0,0.0,-5.0,13.0,29.0,-24.0,-15.0,-5.0,9.0,3.0,12.0,-58.0,-35.0,-23.0,-66.0,-29.0,5.0,-67.0,11.0,-52.0,-29.0,-24.0,-1.0,3.0,13.0,13.0,10.0,-22.0,1.0,24.0,16.0,31.0,3.0,-41.0,-6.0,34.0,-38.0,-2.0,43.0,74.0,51.0,60.0,54.0,68.0,-42.0,7.0,53.0,46.0,50.0,-46.0,-16.0,42.0,64.0,-1.0,REST
0.425,-76.0,-2.0,52.0,59.0,55.0,26.0,40.0,69.0,52.0,38.0,58.0,45.0,68.0,78.0,30.0,47.0,51.0,59.0,68.0,56.0,29.0,-15.0,4.0,25.0,-71.0,18.0,45.0,-15.0,31.0,-22.0,17.0,8.0,28.0,24.0,30.0,32.0,32.0,-25.0,-8.0,2.0,1.0,13.0,-10.0,-7.0,33.0,-22.0,-64.0,-29.0,1.0,36.0,6.0,5.0,2.0,19.0,-117.0,-61.0,-6.0,8.0,-27.0,-7.0,16.0,-26.0,-23.0,-25.0,REST
0.4313,72.0,-41.0,-41.0,-25.0,-2.0,-65.0,-62.0,-16.0,-44.0,-44.0,-29.0,-5.0,-37.0,-2.0,38.0,-54.0,-37.0,-41.0,-34.0,-41.0,-4.0,-82.0,-87.0,-65.0,-125.0,-72.0,-36.0,-92.0,-41.0,-103.0,-59.0,-42.0,-41.0,-54.0,-47.0,-39.0,-84.0,-40.0,-99.0,-43.0,-24.0,-25.0,-63.0,-45.0,68.0,-74.0,-87.0,-55.0,-29.0,10.0,-13.0,-14.0,-14.0,-5.0,-123.0,-71.0,-6.0,11.0,-20.0,-16.0,28.0,-11.0,-4.0,-33.0,REST
0.4375,-5.0,-26.0,-4.0,15.0,16.0,-34.0,-46.0,37.0,14.0,16.0,31.0,33.0,37.0,37.0,26.0,29.0,39.0,45.0,58.0,53.0,50.0,7.0,11.0,-2.0,6.0,15.0,59.0,54.0,-10.0,-23.0,-4.0,13.0,46.0,54.0,70.0,79.0,69.0,31.0,12.0,43.0,88.0,66.0,37.0,61.0,-15.0,34.0,18.0,31.0,69.0,90.0,73.0,79.0,70.0,62.0,-36.0,6.0,64.0,48.0,54.0,-27.0,-11.0,44.0,62.0,8.0,REST
0.4437,-42.0,1.0,45.0,70.0,50.0,9.0,2.0,67.0,42.0,35.0,53.0,47.0,57.0,45.0,41.0,32.0,41.0,41.0,44.0,39.0,33.0,-15.0,-14.0,-26.0,-59.0,-5.0,23.0,-20.0,-39.0,-76.0,-35.0,-16.0,-7.0,-8.0,-3.0,4.0,1.0,-42.0,-31.0,-46.0,15.0,-58.0,-43.0,13.0,52.0,-70.0,-71.0,-33.0,-20.0,5.0,-15.0,-24.0,-25.0,-24.0,-130.0,-79.0,-25.0,-1.0,-49.0,40.0,47.0,-51.0,-42.0,-26.0,REST
0.45,52.0,-45.0,-58.0,-28.0,-20.0,-96.0,-82.0,-2.0,-44.0,-41.0,-26.0,-4.0,-34.0,2.0,56.0,-42.0,-28.0,-30.0,-23.0,-24.0,7.0,-71.0,-62.0,-8.0,-154.0,-39.0,-17.0,-117.0,12.0,-94.0,-30.0,-24.0,-22.0,-25.0,-27.0,-43.0,-79.0,-11.0,-23.0,1.0,22.0,-17.0,-20.0,9.0,-20.0,-29.0,-43.0,-2.0,22.0,42.0,31.0,31.0,29.0,33.0,-65.0,-18.0,33.0,40.0,37.0,2.0,13.0,21.0,48.0,-9.0,REST
0.4563,-61.0,5.0,47.0,65.0,51.0,1.0,17.0,83.0,63.0,56.0,72.0,60.0,77.0,65.0,60.0,72.0,78.0,85.0,92.0,89.0,67.0,47.0,45.0,98.0,6.0,38.0,71.0,-4.0,61.0,-3.0,30.0,35.0,54.0,65.0,69.0,62.0,38.0,27.0,56.0,95.0,91.0,79.0,33.0,43.0,-21.0,44.0,8.0,51.0,73.0,91.0,74.0,77.0,68.0,74.0,-22.0,15.0,57.0,59.0,54.0,25.0,24.0,42.0,52.0,11.0,REST
0.4625,13.0,-2.0,23.0,43.0,45.0,-13.0,-16.0,52.0,21.0,22.0,33.0,42.0,25.0,20.0,68.0,10.0,26.0,22.0,22.0,21.0,42.0,-32.0,-33.0,5.0,-57.0,-55.0,-14.0,-114.0,-16.0,-99.0,-106.0,-33.0,-37.0,-37.0,-33.0,-24.0,-39.0,-104.0,-30.0,-27.0,-8.0,-31.0,-76.0,-49.0,84.0,-68.0,-92.0,-25.0,-21.0,12.0,-7.0,-10.0,-12.0,-5.0,-103.0,-62.0,-20.0,17.0,-22.0,66.0,67.0,-21.0,-21.0,-30.0,REST
0.4688,23.0,-40.0,-35.0,-10.0,-2.0,-58.0,-33.0,23.0,-19.0,-4.0,6.0,14.0,-4.0,-1.0,31.0,-8.0,14.0,14.0,22.0,17.0,37.0,-68.0,-16.0,2.0,-122.0,-25.0,17.0,-69.0,16.0,-33.0,-54.0,-8.0,8.0,18.0,23.0,20.0,18.0,-27.0,21.0,16.0,44.0,40.0,5.0,24.0,-29.0,-5.0,-23.0,26.0,56.0,75.0,67.0,74.0,67.0,61.0,-30.0,16.0,54.0,56.0,74.0,28.0,3.0,54.0,81.0,8.0,REST
0.475,-60.0,11.0,69.0,87.0,58.0,29.0,38.0,92.0,68.0,69.0,81.0,54.0,63.0,62.0,21.0,65.0,79.0,84.0,82.0,72.0,48.0,-1.0,25.0,6.0,-62.0,44.0,72.0,41.0,13.0,22.0,11.0,16.0,40.0,51.0,54.0,57.0,60.0,2.0,7.0,21.0,35.0,31.0,-2.0,41.0,31.0,-24.0,-54.0,14.0,29.0,50.0,35.0,36.0,31.0,31.0,-69.0,-27.0,15.0,39.0,17.0,104.0,55.0,17.0,26.0,21.0,REST
0.4813,65.0,-23.0,-14.0,13.0,12.0,-29.0,-50.0,25.0,-17.0,-6.0,4.0,22.0,-21.0,-5.0,41.0,-22.0,2.0,-2.0,-4.0,-12.0,13.0,-74.0,-73.0,-79.0,-99.0,-35.0,-4.0,-42.0,-44.0,-35.0,-54.0,-44.0,-30.0,-26.0,-18.0,-14.0,-36.0,-65.0,-52.0,-29.0,2.0,-22.0,-52.0,-16.0,61.0,-53.0,-88.0,-4.0,4.0,30.0,16.0,16.0,16.0,14.0,-91.0,-29.0,20.0,43.0,25.0,98.0,71.0,37.0,42.0,17.0,REST
0.4875,-5.0,-15.0,14.0,37.0,25.0,10.0,3.0,73.0,37.0,40.0,55.0,52.0,50.0,36.0,32.0,55.0,70.0,72.0,78.0,68.0,45.0,-17.0,12.0,45.0,-19.0,24.0,71.0,3.0,83.0,56.0,21.0,6.0,51.0,64.0,73.0,58.0,24.0,58.0,41.0,72.0,122.0,51.0,40.0,55.0,-14.0,34.0,23.0,77.0,98.0,107.0,96.0,101.0,91.0,73.0,-34.0,49.0,91.0,73.0,89.0,51.0,22.0,81.0,85.0,29.0,REST
0.4938,-13.0,15.0,63.0,83.0,59.0,52.0,38.0,95.0,67.0,58.0,76.0,62.0,63.0,34.0,25.0,55.0,69.0,65.0,64.0,50.0,11.0,-30.0,3.0,50.0,-63.0,-1.0,35.0,-48.0,0.0,31.0,-5.0,-13.0,8.0,4.0,4.0,-3.0,-32.0,-22.0,-43.0,1.0,52.0,-13.0,-42.0,-25.0,64.0,-55.0,-80.0,-12.0,-5.0,22.0,3.0,-1.0,-5.0,-18.0,-121.0,-46.0,-7.0,14.0,-20.0,93.0,58.0,-16.0,-24.0,-17.0,REST
0.5,52.0,-42.0,-51.0,-20.0,-12.0,-43.0,-59.0,7.0,-38.0,-31.0,-13.0,3.0,-34.0,-32.0,14.0,-41.0,-16.0,-17.0,-13.0,-22.0,-33.0,-86.0,-65.0,-46.0,-115.0,-46.0,-17.0,-76.0,-66.0,-22.0,-12.0,-48.0,-23.0,-25.0,-24.0,-25.0,-13.0,-72.0,-45.0,6.0,25.0,8.0,-50.0,-4.0,-29.0,-29.0,-75.0,-13.0,13.0,44.0,26.0,32.0,29.0,8.0,-74.0,-14.0,28.0,30.0,39.0,26.0,2.0,35.0,45.0,-6.0,REST
0.5062,-67.0,-6.0,32.0,53.0,33.0,21.0,17.0,83.0,49.0,42.0,63.0,40.0,59.0,60.0,16.0,52.0,66.0,70.0,77.0,63.0,15.0,-13.0,21.0,26.0,-23.0,41.0,65.0,32.0,50.0,28.0,53.0,-12.0,45.0,55.0,55.0,52.0,89.0,-34.0,32.0,68.0,60.0,66.0,-5.0,35.0,-49.0,18.0,-29.0,17.0,45.0,71.0,44.0,50.0,45.0,18.0,-52.0,-3.0,32.0,29.0,33.0,37.0,-3.0,29.0,24.0,5.0,REST
0.5125,7.0,-21.0,2.0,26.0,16.0,-4.0,-19.0,45.0,-1.0,-6.0,14.0,15.0,1.0,18.0,40.0,-17.0,2.0,-7.0,-6.0,-21.0,-8.0,-88.0,-57.0,-41.0,-118.0,-28.0,-7.0,-34.0,-62.0,-66.0,-46.0,-72.0,-36.0,-37.0,-31.0,-21.0,-11.0,-118.0,-56.0,-60.0,-45.0,-26.0,-82.0,-64.0,15.0,-79.0,-118.0,-59.0,-43.0,-7.0,-35.0,-39.0,-36.0,-59.0,-127.0,-79.0,-35.0,-7.0,-40.0,70.0,44.0,-31.0,-41.0,-35.0,REST
0.5188,24.0,-45.0,-42.0,-13.0,-11.0,-24.0,-57.0,33.0,-24.0,-18.0,1.0,10.0,2.0,20.0,34.0,-14.0,4.0,1.0,11.0,-1.0,2.0,-54.0,-23.0,-24.0,-84.0,-10.0,27.0,-5.0,-8.0,-32.0,-7.0,-36.0,11.0,23.0,29.0,18.0,5.0,-62.0,19.0,22.0,35.0,26.0,17.0,-4.0,-96.0,6.0,-35.0,20.0,52.0,67.0,55.0,58.0,54.0,26.0,-42.0,-3.0,50.0,35.0,63.0,-2.0,-17.0,49.0,60.0,-2.0,REST
0.525,-52.0,10.0,61.0,78.0,49.0,55.0,40.0,108.0,64.0,54.0,76.0,49.0,80.0,87.0,19.0,61.0,68.0,68.0,73.0,56.0,13.0,6.0,21.0,14.0,-39.0,34.0,51.0,-17.0,53.0,-12.0,40.0,-10.0,28.0,32.0,30.0,10.0,17.0,-62.0,0.0,33.0,41.0,29.0,-5.0,4.0,-27.0,-31.0,-77.0,-5.0,14.0,31.0,13.0,5.0,3.0,-13.0,-86.0,-53.0,-5.0,-1.0,-10.0,41.0,24.0,-8.0,-20.0,-4.0,REST
0.5312,74.0,-31.0,-36.0,-17.0,-18.0,-51.0,-58.0,21.0,-36.0,-36.0,-21.0,-13.0,-48.0,-2.0,15.0,-49.0,-33.0,-40.0,-39.0,-54.0,-44.0,-103.0,-90.0,-79.0,-140.0,-63.0,-46.0,-106.0,-57.0,-93.0,-26.0,-72.0,-52.0,-60.0,-59.0,-68.0,-64.0,-125.0,-52.0,-31.0,-7.0,-18.0,-69.0,-33.0,-25.0,-80.0,-138.0,-51.0,-37.0,-8.0,-26.0,-30.0,-31.0,-49.0,-120.0,-73.0,-26.0,-13.0,-20.0,15.0,21.0,-14.0,-23.0,-33.0,REST
0.5375,-9.0,-41.0,-23.0,-10.0,-16.0,-34.0,-45.0,50.0,-1.0,-3.0,15.0,4.0,8.0,50.0,-15.0,9.0,18.0,23.0,33.0,21.0,-5.0,-28.0,-11.0,15.0,-53.0,3.0,21.0,-17.0,37.0,50.0,20.0,-30.0,15.0,24.0,23.0,-3.0,-14.0,-25.0,40.0,52.0,96.0,59.0,42.0,47.0,-91.0,20.0,-49.0,29.0,49.0,62.0,51.0,56.0,46.0,23.0,-63.0,1.0,40.0,22.0,51.0,-29.0,-24.0,41.0,43.0,-2.0,REST
0.5438,11.0,-21.0,19.0,30.0,12.0,4.0,-4.0,75.0,24.0,11.0,29.0,13.0,23.0,55.0,-7.0,13.0,20.0,20.0,23.0,5.0,-18.0,-26.0,-24.0,-2.0,-69.0,-22.0,-14.0,-67.0,1.0,25.0,-27.0,-60.0,-39.0,-39.0,-40.0,-58.0,-79.0,-89.0,-38.0,-32.0,39.0,-10.0,-27.0,-25.0,35.0,-67.0,-122.0,-25.0,-38.0,-12.0,-35.0,-42.0,-44.0,-50.0,-143.0,-79.0,-42.0,-23.0,-52.0,13.0,33.0,-44.0,-54.0,-21.0,REST
0.55,125.0,-72.0,-87.0,-67.0,-66.0,-90.0,-89.0,-3.0,-68.0,-70.0,-58.0,-40.0,-73.0,-40.0,-11.0,-65.0,-54.0,-55.0,-48.0,-66.0,-55.0,-88.0,-86.0,-57.0,-106.0,-67.0,-55.0,-92.0,-88.0,-21.0,-55.0,-82.0,-58.0,-60.0,-53.0,-60.0,-70.0,-131.0,-43.0,-33.0,33.0,5.0,-11.0,-27.0,-43.0,-51.0,-98.0,-6.0,-10.0,14.0,-1.0,2.0,-2.0,-7.0,-108.0,-36.0,4.0,5.0,16.0,-43.0,-14.0,7.0,17.0,-3.0,REST
0.5563,-5.0,-32.0,6.0,16.0,-13.0,-5.0,-4.0,76.0,28.0,15.0,29.0,10.0,32.0,42.0,-43.0,37.0,37.0,45.0,53.0,35.0,-7.0,-5.0,7.0,13.0,-2.0,21.0,38.0,22.0,-30.0,52.0,42.0,-16.0,30.0,31.0,33.0,26.0,24.0,-58.0,16.0,41.0,78.0,56.0,44.0,25.0,-81.0,2.0,-49.0,25.0,30.0,42.0,32.0,33.0,28.0,18.0,-99.0,-27.0,16.0,11.0,23.0,-21.0,-15.0,10.0,12.0,16.0,REST
0.5625,62.0,-35.0,-14.0,-6.0,-17.0,-18.0,-27.0,39.0,-15.0,-29.0,-14.0,-13.0,-23.0,4.0,-39.0,-31.0,-24.0,-26.0,-24.0,-41.0,-37.0,-81.0,-71.0,-69.0,-98.0,-43.0,-32.0,-76.0,-61.0,-58.0,-3.0,-66.0,-42.0,-56.0,-55.0,-53.0,-69.0,-133.0,-81.0,-51.0,-20.0,-62.0,-63.0,-62.0,11.0,-92.0,-135.0,-58.0,-65.0,-42.0,-53.0,-60.0,-55.0,-55.0,-163.0,-109.0,-57.0,-33.0,-58.0,16.0,23.0,-54.0,-63.0,-34.0,REST
0.5687,77.0,-65.0,-63.0,-50.0,-51.0,-50.0,-61.0,6.0,-52.0,-55.0,-39.0,-29.0,-37.0,-14.0,-44.0,-48.0,-36.0,-32.0,-22.0,-37.0,-27.0,-69.0,-45.0,-83.0,-87.0,-13.0,5.0,-28.0,-59.0,-13.0,3.0,-58.0,-3.0,2.0,13.0,8.0,16.0,-106.0,-6.0,30.0,40.0,27.0,-2.0,-4.0,-103.0,-16.0,-73.0,-1.0,10.0,21.0,20.0,25.0,23.0,11.0,-81.0,-33.0,16.0,6.0,37.0,-43.0,-48.0,19.0,33.0,-11.0,REST
0.575,-26.0,-23.0,30.0,41.0,11.0,32.0,12.0,77.0,24.0,11.0,33.0,12.0,41.0,39.0,-44.0,16.0,24.0,32.0,40.0,18.0,-8.0,-15.0,-3.0,-24.0,-22.0,17.0,36.0,-24.0,-37.0,8.0,11.0,-45.0,8.0,12.0,15.0,14.0,26.0,-97.0,5.0,1.0,21.0,39.0,-29.0,-16.0,-39.0,-37.0,-105.0,-12.0,-23.0,-16.0,-15.0,-18.0,-18.0,-30.0,-130.0,-78.0,-33.0,-13.0,-24.0,1.0,-5.0,-36.0,-34.0,-13.0,REST
0.5813,79.0,-68.0,-65.0,-43.0,-38.0,-56.0,-77.0,-10.0,-71.0,-65.0,-48.0,-29.0,-57.0,-56.0,-43.0,-81.0,-63.0,-59.0,-49.0,-70.0,-46.0,-101.0,-92.0,-76.0,-105.0,-79.0,-42.0,-118.0,-102.0,-112.0,-55.0,-92.0,-61.0,-65.0,-61.0,-68.0,-98.0,-116.0,-49.0,-69.0,-44.0,-52.0,-84.0,-53.0,-7.0,-98.0,-138.0,-39.0,-59.0,-43.0,-36.0,-41.0,-38.0,-46.0,-159.0,-85.0,-43.0,-10.0,-23.0,-30.0,8.0,-30.0,-24.0,-20.0,REST
0.5875,-3.0,-56.0,-29.0,-11.0,-23.0,-30.0,-31.0,19.0,-22.0,-17.0,-1.0,-3.0,-3.0,-53.0,-69.0,-14.0,3.0,13.0,27.0,4.0,-31.0,-59.0,-7.0,5.0,-49.0,-1.0,46.0,-12.0,15.0,-51.0,65.0,-29.0,33.0,41.0,48.0,16.0,-18.0,-89.0,8.0,14.0,39.0,45.0,18.0,46.0,-112.0,-18.0,-46.0,46.0,33.0,40.0,44.0,44.0,40.0,34.0,-88.0,-3.0,30.0,30.0,50.0,-60.0,-31.0,39.0,51.0,24.0,REST
0.5938,-5.0,-14.0,34.0,43.0,17.0,11.0,8.0,53.0,14.0,8.0,23.0,7.0,7.0,-60.0,-53.0,-5.0,13.0,16.0,19.0,-3.0,-36.0,-54.0,-10.0,11.0,-78.0,-14.0,13.0,-59.0,-22.0,-17.0,32.0,-48.0,-8.0,-12.0,-13.0,-35.0,-87.0,-127.0,-53.0,-42.0,1.0,-6.0,-62.0,-4.0,0.0,-65.0,-139.0,-8.0,-47.0,-29.0,-34.0,-49.0,-40.0,-33.0,-154.0,-81.0,-49.0,-11.0,-44.0,10.0,35.0,-36.0,-38.0,4.0,REST
0.6,93.0,-68.0,-72.0,-56.0,-52.0,-72.0,-90.0,-18.0,-76.0,-67.0,-57.0,-40.0,-76.0,-125.0,-43.0,-80.0,-58.0,-57.0,-49.0,-62.0,-36.0,-64.0,-69.0,-39.0,-84.0,-61.0,-37.0,-84.0,-75.0,-22.0,-36.0,-74.0,-39.0,-40.0,-31.0,-49.0,-107.0,-114.0,-53.0,-18.0,13.0,-12.0,-55.0,-6.0,-46.0,-33.0,-98.0,2.0,-13.0,7.0,1.0,-7.0,2.0,4.0,-112.0,-28.0,5.0,18.0,17.0,-49.0,-1.0,10.0,19.0,-3.0,REST
0.6063,-50.0,-34.0,14.0,27.0,1.0,18.0,2.0,62.0,21.0,20.0,33.0,19.0,36.0,-41.0,-36.0,30.0,41.0,48.0,58.0,41.0,23.0,10.0,25.0,69.0,1.0,18.0,49.0,-4.0,47.0,34.0,2.0,-23.0,34.0,42.0,51.0,22.0,-17.0,-87.0,-1.0,53.0,47.0,44.0,21.0,48.0,-83.0,6.0,-25.0,37.0,35.0,50.0,34.0,29.0,29.0,29.0,-98.0,-4.0,24.0,26.0,17.0,-33.0,-7.0,8.0,9.0,0.0,REST
0.6125,1.0,-50.0,-23.0,-3.0,-14.0,-14.0,-15.0,20.0,-34.0,-32.0,-20.0,-13.0,-27.0,-86.0,-6.0,-50.0,-29.0,-33.0,-28.0,-47.0,-31.0,-83.0,-72.0,-39.0,-89.0,-77.0,-48.0,-101.0,-47.0,-54.0,-125.0,-107.0,-68.0,-74.0,-67.0,-77.0,-70.0,-204.0,-94.0,-73.0,-38.0,-59.0,-88.0,-46.0,-2.0,-121.0,-145.0,-72.0,-86.0,-58.0,-79.0,-89.0,-79.0,-70.0,-191.0,-110.0,-81.0,-46.0,-85.0,-33.0,-3.0,-77.0,-79.0,-58.0,REST
0.6188,23.0,-103.0,-105.0,-83.0,-73.0,-79.0,-79.0,-30.0,-94.0,-90.0,-79.0,-62.0,-71.0,-127.0,-46.0,-90.0,-70.0,-71.0,-55.0,-67.0,-46.0,-80.0,-67.0,-67.0,-97.0,-70.0,-35.0,-55.0,-52.0,-14.0,-96.0,-100.0,-41.0,-39.0,-27.0,-41.0,-22.0,-142.0,-32.0,-22.0,31.0,14.0,-41.0,21.0,-87.0,-66.0,-90.0,-31.0,-24.0,-10.0,-20.0,-17.0,-8.0,-10.0,-116.0,-45.0,-18.0,-22.0,2.0,-112.0,-79.0,-8.0,11.0,-37.0,REST
0.625,-55.0,-54.0,-7.0,1.0,-11.0,-3.0,-3.0,45.0,-8.0,-18.0,-4.0,-19.0,8.0,-74.0,-83.0,-12.0,-4.0,-2.0,11.0,-4.0,-22.0,-33.0,-15.0,4.0,-36.0,-27.0,4.0,-29.0,-13.0,11.0,-30.0,-65.0,-12.0,-13.0,-12.0,-32.0,-44.0,-91.0,-30.0,-7.0,16.0,22.0,-40.0,31.0,-22.0,-66.0,-107.0,-30.0,-40.0,-27.0,-42.0,-48.0,-38.0,-41.0,-153.0,-70.0,-46.0,-35.0,-52.0,-57.0,-17.0,-50.0,-52.0,-30.0,REST
0.6313,73.0,-76.0,-77.0,-62.0,-43.0,-70.0,-80.0,-19.0,-86.0,-80.0,-71.0,-50.0,-79.0,-133.0,-54.0,-100.0,-83.0,-85.0,-76.0,-93.0,-54.0,-154.0,-140.0,-153.0,-156.0,-107.0,-71.0,-69.0,-138.0,-122.0,-78.0,-111.0,-73.0,-79.0,-72.0,-71.0,-83.0,-158.0,-102.0,-92.0,-59.0,-47.0,-96.0,-13.0,-29.0,-111.0,-142.0,-65.0,-75.0,-54.0,-73.0,-78.0,-70.0,-77.0,-175.0,-78.0,-56.0,-37.0,-64.0,-86.0,-10.0,-55.0,-55.0,-45.0,REST
0.6375,-29.0,-73.0,-48.0,-37.0,-31.0,-39.0,-73.0,6.0,-44.0,-36.0,-27.0,-25.0,-16.0,-73.0,-56.0,-39.0,-23.0,-18.0,-1.0,-18.0,-5.0,-98.0,-63.0,-82.0,-119.0,-35.0,-2.0,-28.0,36.0,-81.0,15.0,-49.0,4.0,8.0,4.0,-14.0,-44.0,-48.0,-34.0,6.0,27.0,17.0,-8.0,66.0,-128.0,-17.0,-51.0,-5.0,15.0,24.0,7.0,12.0,11.0,3.0,-98.0,-5.0,11.0,1.0,12.0,-109.0,-54.0,10.0,15.0,-2.0,REST
0.6438,-61.0,-45.0,-1.0,4.0,-9.0,-11.0,-48.0,36.0,-13.0,-17.0,-3.0,-15.0,-6.0,-46.0,-46.0,-29.0,-12.0,-16.0,-7.0,-25.0,-7.0,-96.0,-71.0,-34.0,-131.0,-74.0,-51.0,-141.0,4.0,-90.0,-36.0,-70.0,-53.0,-65.0,-77.0,-103.0,-155.0,-72.0,-93.0,-42.0,-45.0,-59.0,-81.0,-29.0,-31.0,-97.0,-140.0,-78.0,-73.0,-50.0,-71.0,-81.0,-75.0,-60.0,-190.0,-95.0,-75.0,-49.0,-87.0,-49.0,5.0,-73.0,-87.0,-34.0,REST
0.65,35.0,-104.0,-114.0,-98.0,-72.0,-91.0,-116.0,-43.0,-109.0,-100.0,-82.0,-62.0,-92.0,-111.0,-44.0,-107.0,-84.0,-87.0,-77.0,-90.0,-28.0,-124.0,-109.0,-41.0,-139.0,-137.0,-91.0,-139.0,-70.0,-128.0,-84.0,-106.0,-79.0,-86.0,-80.0,-97.0,-108.0,-130.0,-79.0,-29.0,-54.0,-45.0,-73.0,-46.0,-106.0,-79.0,-125.0,-57.0,-43.0,-23.0,-34.0,-34.0,-31.0,-13.0,-148.0,-46.0,-27.0,-21.0,-18.0,-92.0,-35.0,-14.0,-10.0,-18.0,REST
0.6562,-76.0,-56.0,-18.0,-10.0,-11.0,-5.0,-49.0,34.0,-8.0,-14.0,6.0,-8.0,15.0,-34.0,-67.0,-3.0,13.0,18.0,27.0,13.0,10.0,-22.0,4.0,37.0,-50.0,-30.0,11.0,-19.0,39.0,-60.0,28.0,-42.0,5.0,10.0,12.0,-16.0,-20.0,-55.0,-20.0,35.0,27.0,36.0,-15.0,27.0,-126.0,-18.0,-68.0,-8.0,12.0,17.0,2.0,2.0,1.0,7.0,-117.0,-15.0,-7.0,-7.0,-5.0,-55.0,-29.0,1.0,-4.0,10.0,REST
0.6625,-26.0,-57.0,-39.0,-29.0,-24.0,-40.0,-77.0,4.0,-46.0,-51.0,-29.0,-35.0,-46.0,-82.0,-72.0,-62.0,-40.0,-46.0,-47.0,-61.0,-43.0,-112.0,-80.0,-69.0,-125.0,-84.0,-67.0,-138.0,-84.0,-86.0,-60.0,-101.0,-79.0,-84.0,-90.0,-105.0,-119.0,-152.0,-115.0,-96.0,-40.0,-54.0,-93.0,-38.0,-16.0,-117.0,-148.0,-78.0,-79.0,-58.0,-77.0,-88.0,-78.0,-74.0,-169.0,-93.0,-80.0,-43.0,-75.0,-26.0,21.0,-61.0,-71.0,-20.0,REST
0.6688,-35.0,-85.0,-88.0,-71.0,-55.0,-73.0,-102.0,-27.0,-78.0,-72.0,-45.0,-52.0,-64.0,-95.0,-91.0,-73.0,-48.0,-46.0,-37.0,-45.0,-27.0,-109.0,-80.0,-82.0,-84.0,-59.0,-39.0,-84.0,-40.0,-49.0,-45.0,-78.0,-31.0,-23.0,-28.0,-34.0,-16.0,-128.0,-11.0,-33.0,32.0,21.0,-17.0,29.0,-132.0,-31.0,-83.0,-10.0,-1.0,11.0,6.0,10.0,15.0,8.0,-53.0,-15.0,3.0,4.0,31.0,-88.0,-52.0,21.0,31.0,10.0,REST
0.675,-131.0,-30.0,21.0,28.0,14.0,2.0,-18.0,55.0,16.0,7.0,31.0,1.0,30.0,-21.0,-88.0,4.0,24.0,29.0,33.0,28.0,-2.0,-35.0,-11.0,-19.0,-58.0,-2.0,11.0,-29.0,57.0,-49.0,-32.0,-50.0,-3.0,2.0,-9.0,-17.0,-24.0,-110.0,-6.0,-8.0,11.0,16.0,-26.0,15.0,-95.0,-54.0,-111.0,-24.0,-31.0,-19.0,-29.0,-33.0,-29.0,-33.0,-99.0,-51.0,-39.0,-23.0,-42.0,-36.0,-20.0,-29.0,-48.0,-2.0,REST
0.6813,-23.0,-69.0,-72.0,-58.0,-41.0,-93.0,-104.0,-24.0,-77.0,-77.0,-62.0,-51.0,-73.0,-94.0,-64.0,-96.0,-68.0,-73.0,-74.0,-79.0,-68.0,-121.0,-99.0,-103.0,-180.0,-90.0,-76.0,-107.0,-96.0,-135.0,-110.0,-109.0,-78.0,-85.0,-87.0,-95.0,-134.0,-139.0,-95.0,-71.0,-77.0,-54.0,-81.0,-54.0,-80.0,-131.0,-159.0,-70.0,-71.0,-52.0,-65.0,-72.0,-68.0,-74.0,-147.0,-59.0,-54.0,-31.0,-62.0,-63.0,-16.0,-41.0,-58.0,-27.0,REST
0.6875,-104.0,-62.0,-49.0,-36.0,-33.0,-60.0,-64.0,12.0,-33.0,-34.0,-19.0,-29.0,-17.0,-56.0,-71.0,-25.0,-8.0,-7.0,-3.0,-10.0,-34.0,-39.0,-14.0,6.0,-83.0,-21.0,-2.0,-41.0,23.0,-12.0,-10.0,-48.0,6.0,11.0,10.0,-14.0,-48.0,-16.0,-17.0,35.0,27.0,41.0,23.0,24.0,-153.0,-22.0,-60.0,11.0,29.0,30.0,18.0,18.0,15.0,2.0,-73.0,16.0,23.0,7.0,14.0,-102.0,-56.0,21.0,14.0,10.0,REST
0.6938,-127.0,-26.0,8.0,20.0,10.0,1.0,-11.0,50.0,3.0,-7.0,8.0,-11.0,-5.0,-20.0,-56.0,-8.0,1.0,-4.0,-8.0,-12.0,-40.0,-53.0,-37.0,-6.0,-67.0,-38.0,-28.0,-87.0,33.0,-49.0,-41.0,-59.0,-33.0,-41.0,-53.0,-63.0,-97.0,-51.0,-93.0,-55.0,-25.0,-25.0,-39.0,-53.0,-34.0,-91.0,-140.0,-54.0,-54.0,-47.0,-62.0,-68.0,-67.0,-64.0,-144.0,-69.0,-53.0,-44.0,-75.0,-47.0,6.0,-53.0,-74.0,-13.0,REST
0.7,-27.0,-78.0,-94.0,-79.0,-61.0,-97.0,-125.0,-23.0,-84.0,-82.0,-69.0,-61.0,-95.0,-89.0,-61.0,-85.0,-71.0,-78.0,-76.0,-80.0,-76.0,-109.0,-91.0,-31.0,-96.0,-80.0,-77.0,-140.0,8.0,-86.0,-89.0,-91.0,-62.0,-68.0,-76.0,-86.0,-126.0,-40.0,-45.0,-46.0,-49.0,-4.0,-34.0,-63.0,-99.0,-62.0,-121.0,-43.0,-29.0,-29.0,-32.0,-26.0,-34.0,-32.0,-105.0,-15.0,-6.0,-23.0,-12.0,-120.0,-34.0,7.0,-1.0,2.0,REST
0.7063,-133.0,-40.0,-3.0,1.0,-7.0,-24.0,-43.0,59.0,10.0,0.0,15.0,-14.0,4.0,-29.0,-82.0,11.0,18.0,17.0,20.0,6.0,-48.0,3.0,11.0,16.0,-10.0,-7.0,12.0,-35.0,24.0,23.0,-2.0,-45.0,13.0,21.0,18.0,6.0,-4.0,-2.0,30.0,32.0,12.0,41.0,24.0,-2.0,-125.0,-9.0,-73.0,-5.0,10.0,4.0,-2.0,3.0,-8.0,-16.0,-91.0,15.0,8.0,-15.0,-8.0,-121.0,-34.0,15.0,-4.0,18.0,REST
0.7125,-69.0,-48.0,-26.0,-15.0,-7.0,-32.0,-46.0,12.0,-43.0,-48.0,-31.0,-32.0,-44.0,-55.0,-59.0,-62.0,-45.0,-55.0,-58.0,-65.0,-63.0,-78.0,-85.0,-153.0,-91.0,-91.0,-52.0,-61.0,-140.0,-41.0,-97.0,-106.0,-68.0,-69.0,-63.0,-47.0,-29.0,-125.0,-77.0,-100.0,-73.0,-53.0,-78.0,-92.0,-43.0,-110.0,-172.0,-88.0,-92.0,-80.0,-90.0,-91.0,-89.0,-88.0,-165.0,-78.0,-73.0,-60.0,-89.0,-92.0,2.0,-58.0,-81.0,-39.0,REST
0.7188,-51.0,-91.0,-95.0,-82.0,-54.0,-77.0,-121.0,-36.0,-96.0,-88.0,-76.0,-65.0,-80.0,-74.0,-56.0,-90.0,-71.0,-75.0,-69.0,-67.0,-45.0,-89.0,-79.0,-89.0,-77.0,-71.0,-40.0,-32.0,-67.0,-41.0,-78.0,-91.0,-41.0,-39.0,-37.0,-29.0,-21.0,-40.0,-31.0,-45.0,-22.0,43.0,-2.0,-40.0,-134.0,-42.0,-87.0,-25.0,-20.0,-17.0,-20.0,-9.0,-12.0,-22.0,-90.0,-7.0,3.0,-22.0,3.0,-162.0,-61.0,20.0,13.0,-13.0,REST
0.725,-124.0,-46.0,-1.0,-7.0,-11.0,-26.0,-79.0,38.0,-7.0,-15.0,-10.0,-36.0,-18.0,-25.0,-60.0,-11.0,-3.0,-7.0,-6.0,-12.0,-15.0,-44.0,-9.0,26.0,-45.0,2.0,-3.0,-46.0,40.0,-36.0,-8.0,-44.0,-9.0,-15.0,-32.0,-38.0,-88.0,1.0,-19.0,-1.0,-11.0,-18.0,-3.0,-55.0,-36.0,-80.0,-86.0,-24.0,-35.0,-32.0,-42.0,-39.0,-43.0,-53.0,-129.0,-48.0,-27.0,-33.0,-53.0,-98.0,-10.0,-15.0,-49.0,-14.0,REST
0.7313,17.0,-70.0,-73.0,-62.0,-41.0,-87.0,-120.0,-23.0,-80.0,-75.0,-74.0,-63.0,-90.0,-69.0,-32.0,-87.0,-75.0,-82.0,-84.0,-93.0,-36.0,-127.0,-96.0,-31.0,-106.0,-86.0,-77.0,-134.0,-63.0,-98.0,-104.0,-101.0,-75.0,-83.0,-92.0,-81.0,-134.0,-77.0,-77.0,-50.0,-34.0,-108.0,-59.0,-106.0,-30.0,-120.0,-125.0,-56.0,-68.0,-51.0,-62.0,-55.0,-60.0,-64.0,-140.0,-63.0,-34.0,-34.0,-49.0,-95.0,4.0,-6.0,-40.0,-22.0,REST
0.7375,-58.0,-65.0,-46.0,-33.0,-22.0,-42.0,-65.0,9.0,-33.0,-30.0,-22.0,-33.0,-15.0,-31.0,-47.0,-18.0,-13.0,-10.0,-3.0,-11.0,6.0,-18.0,-5.0,41.0,-42.0,-33.0,-4.0,-47.0,-22.0,4.0,-55.0,-64.0,-2.0,7.0,0.0,-2.0,-25.0,-26.0,15.0,23.0,51.0,3.0,22.0,-12.0,-146.0,-27.0,-36.0,11.0,20.0,25.0,15.0,32.0,21.0,10.0,-73.0,15.0,34.0,-6.0,26.0,-112.0,-46.0,49.0,31.0,17.0,REST
0.7438,-75.0,-34.0,3.0,0.0,-15.0,-23.0,-37.0,37.0,-1.0,-11.0,-5.0,-31.0,-16.0,-34.0,-55.0,-13.0,-7.0,-13.0,-15.0,-27.0,-27.0,-35.0,-30.0,-39.0,-56.0,-43.0,-31.0,-74.0,-32.0,10.0,-97.0,-85.0,-48.0,-54.0,-63.0,-63.0,-88.0,-86.0,-48.0,-67.0,-34.0,-40.0,-52.0,-62.0,-31.0,-122.0,-134.0,-67.0,-70.0,-53.0,-71.0,-67.0,-68.0,-62.0,-152.0,-78.0,-61.0,-53.0,-75.0,-48.0,5.0,-42.0,-69.0,-22.0,REST
0.75,7.0,-95.0,-110.0,-106.0,-93.0,-123.0,-137.0,-50.0,-102.0,-97.0,-94.0,-83.0,-112.0,-105.0,-52.0,-99.0,-89.0,-91.0,-89.0,-98.0,-56.0,-118.0,-116.0,-134.0,-82.0,-105.0,-81.0,-109.0,-64.0,-46.0,-131.0,-112.0,-84.0,-88.0,-90.0,-87.0,-102.0,-117.0,-67.0,-54.0,-22.0,-22.0,-29.0,-34.0,-72.0,-92.0,-117.0,-52.0,-47.0,-26.0,-39.0,-29.0,-34.0,-27.0,-126.0,-52.0,-25.0,-24.0,-17.0,-108.0,-43.0,3.0,-11.0,-15.0,REST
0.7563,-140.0,-68.0,-31.0,-27.0,-35.0,-44.0,-55.0,18.0,-20.0,-21.0,-11.0,-33.0,-6.0,-15.0,-51.0,-5.0,-3.0,8.0,13.0,4.0,1.0,-15.0,-1.0,-16.0,-6.0,-17.0,5.0,-20.0,44.0,4.0,-22.0,-51.0,-9.0,-3.0,-14.0,-20.0,-44.0,-5.0,-14.0,24.0,64.0,34.0,39.0,20.0,-77.0,-24.0,-49.0,-3.0,4.0,17.0,0.0,6.0,-6.0,-3.0,-110.0,-35.0,-2.0,-11.0,-9.0,-83.0,-50.0,3.0,-14.0,4.0,REST
0.7625,-65.0,-67.0,-51.0,-48.0,-46.0,-74.0,-82.0,-12.0,-60.0,-64.0,-51.0,-58.0,-64.0,-54.0,-32.0,-74.0,-61.0,-63.0,-66.0,-72.0,-49.0,-80.0,-71.0,-63.0,-101.0,-76.0,-76.0,-130.0,-59.0,-78.0,-60.0,-103.0,-90.0,-99.0,-114.0,-120.0,-173.0,-58.0,-103.0,-97.0,-33.0,-66.0,-76.0,-70.0,5.0,-128.0,-161.0,-81.0,-93.0,-65.0,-87.0,-87.0,-92.0,-82.0,-181.0,-105.0,-74.0,-51.0,-83.0,-31.0,-2.0,-57.0,-77.0,-32.0,REST
0.7688,-13.0,-97.0,-106.0,-100.0,-88.0,-120.0,-107.0,-47.0,-94.0,-93.0,-81.0,-79.0,-87.0,-84.0,-52.0,-88.0,-72.0,-73.0,-63.0,-66.0,-51.0,-81.0,-77.0,-73.0,-41.0,-63.0,-50.0,-85.0,-52.0,-21.0,-60.0,-79.0,-47.0,-45.0,-48.0,-62.0,-84.0,-64.0,-5.0,-48.0,3.0,7.0,-18.0,-18.0,-109.0,-56.0,-82.0,-5.0,-11.0,7.0,-5.0,8.0,-4.0,-12.0,-96.0,-8.0,8.0,-4.0,22.0,-75.0,-53.0,36.0,27.0,2.0,REST
0.775,-89.0,-38.0,7.0,8.0,-8.0,-16.0,-21.0,34.0,6.0,-6.0,6.0,-18.0,7.0,-17.0,-70.0,-2.0,11.0,11.0,17.0,9.0,-27.0,-26.0,6.0,16.0,13.0,-5.0,4.0,-26.0,-31.0,6.0,-37.0,-30.0,-10.0,-10.0,-21.0,-26.0,-61.0,-64.0,15.0,-24.0,-29.0,-26.0,-12.0,-8.0,-41.0,-76.0,-89.0,-7.0,-29.0,-7.0,-26.0,-26.0,-33.0,-38.0,-133.0,-44.0,-26.0,-18.0,-35.0,-26.0,-4.0,-5.0,-35.0,2.0,REST
0.7812,30.0,-74.0,-79.0,-67.0,-51.0,-82.0,-102.0,-37.0,-81.0,-81.0,-70.0,-56.0,-85.0,-84.0,-72.0,-96.0,-69.0,-81.0,-79.0,-85.0,-76.0,-105.0,-92.0,-77.0,-106.0,-93.0,-82.0,-118.0,-118.0,-71.0,-116.0,-90.0,-88.0,-97.0,-107.0,-101.0,-153.0,-80.0,-78.0,-75.0,-88.0,-88.0,-73.0,-74.0,1.0,-129.0,-116.0,-54.0,-70.0,-40.0,-61.0,-62.0,-66.0,-58.0,-160.0,-68.0,-37.0,-27.0,-51.0,-58.0,-1.0,-21.0,-41.0,-30.0,REST
0.7875,-57.0,-79.0,-64.0,-53.0,-48.0,-53.0,-80.0,2.0,-39.0,-42.0,-26.0,-37.0,-25.0,-39.0,-80.0,-30.0,-9.0,-15.0,-8.0,-11.0,-39.0,-35.0,-25.0,-23.0,-50.0,-20.0,2.0,-20.0,27.0,-14.0,-37.0,-30.0,-7.0,1.0,-4.0,-14.0,-23.0,11.0,-11.0,13.0,45.0,23.0,23.0,18.0,-89.0,-24.0,-20.0,22.0,23.0,35.0,20.0,27.0,17.0,20.0,-78.0,8.0,35.0,2.0,27.0,-91.0,-48.0,40.0,29.0,6.0,REST
0.7938,-87.0,-39.0,1.0,6.0,-5.0,2.0,-44.0,36.0,4.0,-9.0,5.0,-18.0,-13.0,-37.0,-56.0,-14.0,3.0,-7.0,-10.0,-20.0,-53.0,-56.0,-40.0,-64.0,-79.0,-23.0,-11.0,-22.0,-8.0,-37.0,-42.0,-36.0,-39.0,-42.0,-44.0,-39.0,-38.0,-76.0,-70.0,-74.0,-10.0,-37.0,-46.0,-10.0,-12.0,-103.0,-116.0,-42.0,-68.0,-45.0,-63.0,-68.0,-70.0,-59.0,-162.0,-88.0,-58.0,-50.0,-77.0,-40.0,1.0,-55.0,-78.0,-24.0,REST
0.8,14.0,-94.0,-105.0,-89.0,-74.0,-88.0,-136.0,-43.0,-89.0,-87.0,-77.0,-67.0,-105.0,-115.0,-50.0,-97.0,-72.0,-83.0,-82.0,-91.0,-85.0,-115.0,-99.0,-90.0,-79.0,-83.0,-66.0,-107.0,-31.0,-49.0,-95.0,-83.0,-74.0,-74.0,-78.0,-74.0,-109.0,-100.0,-72.0,-53.0,-17.0,-35.0,-34.0,-17.0,-81.0,-97.0,-95.0,-24.0,-40.0,-17.0,-29.0,-26.0,-29.0,-29.0,-110.0,-45.0,-13.0,-17.0,-13.0,-82.0,-41.0,-7.0,-6.0,-13.0,REST
0.8063,-106.0,-55.0,-16.0,-6.0,-25.0,-6.0,-46.0,48.0,8.0,0.0,12.0,-12.0,13.0,-25.0,-65.0,10.0,24.0,22.0,26.0,17.0,-25.0,-16.0,19.0,42.0,5.0,6.0,21.0,-48.0,-13.0,26.0,-13.0,-18.0,5.0,15.0,4.0,-5.0,-21.0,-58.0,18.0,20.0,54.0,19.0,45.0,29.0,-87.0,-33.0,-40.0,25.0,12.0,27.0,15.0,15.0,9.0,-2.0,-74.0,-10.0,12.0,-1.0,3.0,-42.0,-44.0,7.0,3.0,14.0,REST
0.8125,-31.0,-53.0,-32.0,-22.0,-27.0,-18.0,-65.0,17.0,-34.0,-42.0,-26.0,-33.0,-33.0,-55.0,-61.0,-61.0,-37.0,-46.0,-44.0,-54.0,-58.0,-93.0,-81.0,-77.0,-81.0,-56.0,-54.0,-99.0,-104.0,-71.0,-91.0,-65.0,-79.0,-81.0,-86.0,-83.0,-84.0,-164.0,-60.0,-104.0,-53.0,-65.0,-60.0,-60.0,-13.0,-126.0,-131.0,-65.0,-92.0,-61.0,-71.0,-82.0,-79.0,-78.0,-152.0,-99.0,-68.0,-49.0,-77.0,-12.0,-2.0,-61.0,-72.0,-25.0,REST
0.8188,3.0,-92.0,-97.0,-86.0,-66.0,-78.0,-135.0,-30.0,-82.0,-78.0,-63.0,-65.0,-76.0,-92.0,-81.0,-82.0,-59.0,-61.0,-49.0,-61.0,-62.0,-94.0,-76.0,-60.0,-23.0,-48.0,-41.0,-62.0,-28.0,-58.0,-76.0,-49.0,-51.0,-41.0,-41.0,-52.0,-66.0,-65.0,-13.0,-2.0,13.0,16.0,11.0,-14.0,-114.0,-33.0,-35.0,-14.0,-14.0,3.0,5.0,1.0,-4.0,-4.0,-77.0,-31.0,8.0,-10.0,13.0,-72.0,-65.0,14.0,17.0,9.0,REST
0.825,-93.0,-44.0,2.0,2.0,-3.0,-7.0,-68.0,44.0,10.0,1.0,17.0,-18.0,3.0,-36.0,-76.0,-1.0,17.0,16.0,18.0,1.0,-41.0,-22.0,11.0,32.0,8.0,-14.0,3.0,-40.0,8.0,12.0,-36.0,-18.0,-21.0,-16.0,-19.0,-23.0,-46.0,-33.0,-18.0,32.0,18.0,7.0,3.0,-35.0,-61.0,-61.0,-60.0,-34.0,-32.0,-16.0,-21.0,-32.0,-41.0,-41.0,-125.0,-58.0,-28.0,-25.0,-46.0,12.0,-16.0,-27.0,-42.0,15.0,REST
0.8313,35.0,-72.0,-78.0,-67.0,-42.0,-64.0,-120.0,-26.0,-74.0,-73.0,-59.0,-50.0,-71.0,-102.0,-60.0,-94.0,-63.0,-74.0,-72.0,-83.0,-65.0,-127.0,-100.0,-108.0,-105.0,-100.0,-71.0,-108.0,-109.0,-67.0,-101.0,-64.0,-88.0,-96.0,-87.0,-79.0,-100.0,-95.0,-80.0,-63.0,-60.0,-46.0,-70.0,-78.0,-28.0,-115.0,-112.0,-71.0,-69.0,-52.0,-52.0,-58.0,-67.0,-77.0,-147.0,-65.0,-42.0,-31.0,-52.0,2.0,-4.0,-32.0,-43.0,-13.0,REST
0.8375,-37.0,-63.0,-53.0,-46.0,-34.0,-39.0,-95.0,4.0,-32.0,-37.0,-24.0,-30.0,-17.0,-75.0,-84.0,-32.0,-8.0,-15.0,-5.0,-14.0,-16.0,-81.0,-43.0,-65.0,-98.0,-13.0,6.0,6.0,-44.0,-1.0,-13.0,-7.0,-4.0,1.0,12.0,5.0,16.0,-43.0,25.0,7.0,20.0,63.0,26.0,34.0,-106.0,-29.0,-22.0,-5.0,21.0,14.0,18.0,25.0,8.0,-22.0,-72.0,3.0,17.0,1.0,18.0,-71.0,-59.0,21.0,20.0,13.0,REST
0.8438,-80.0,-29.0,3.0,6.0,-8.0,-27.0,-81.0,41.0,5.0,-16.0,-1.0,-23.0,-25.0,-67.0,-71.0,-16.0,0.0,-14.0,-15.0,-31.0,-22.0,-81.0,-48.0,-46.0,-76.0,-32.0,-25.0,-51.0,-53.0,-27.0,-67.0,-32.0,-47.0,-51.0,-50.0,-60.0,-88.0,-71.0,-24.0,-68.0,-21.0,-11.0,-44.0,-24.0,1.0,-112.0,-102.0,-71.0,-67.0,-58.0,-66.0,-69.0,-77.0,-91.0,-152.0,-90.0,-71.0,-44.0,-77.0,-11.0,2.0,-59.0,-72.0,-9.0,REST
0.85,10.0,-84.0,-105.0,-90.0,-86.0,-119.0,-160.0,-37.0,-90.0,-93.0,-77.0,-69.0,-110.0,-111.0,-55.0,-98.0,-76.0,-84.0,-84.0,-95.0,-45.0,-103.0,-83.0,-14.0,-52.0,-102.0,-83.0,-129.0,-55.0,-76.0,-102.0,-58.0,-83.0,-84.0,-86.0,-107.0,-160.0,-95.0,-56.0,-60.0,-17.0,-8.0,-37.0,-48.0,-42.0,-86.0,-96.0,-63.0,-46.0,-30.0,-37.0,-31.0,-38.0,-50.0,-109.0,-59.0,-31.0,-21.0,-14.0,-46.0,-33.0,-10.0,-1.0,-7.0,REST
0.8562,-117.0,-53.0,-21.0,-12.0,-36.0,-25.0,-59.0,32.0,-7.0,-14.0,5.0,-22.0,-2.0,-38.0,-78.0,-8.0,10.0,13.0,16.0,2.0,-18.0,-6.0,24.0,65.0,33.0,-7.0,9.0,-26.0,44.0,17.0,-14.0,14.0,2.0,9.0,7.0,-19.0,-15.0,-28.0,9.0,-1.0,50.0,54.0,22.0,10.0,-51.0,-33.0,-53.0,-24.0,7.0,12.0,7.0,7.0,-4.0,-21.0,-94.0,-24.0,-7.0,-4.0,-3.0,-37.0,-30.0,3.0,-2.0,7.0,REST
0.8625,-20.0,-41.0,-26.0,-14.0,-21.0,-24.0,-73.0,14.0,-34.0,-42.0,-25.0,-30.0,-43.0,-76.0,-69.0,-60.0,-39.0,-42.0,-48.0,-64.0,-39.0,-71.0,-46.0,-46.0,-65.0,-63.0,-45.0,-68.0,-32.0,-35.0,-93.0,-20.0,-61.0,-67.0,-67.0,-74.0,-71.0,-72.0,-49.0,-108.0,-30.0,-70.0,-77.0,-70.0,54.0,-125.0,-130.0,-78.0,-74.0,-59.0,-67.0,-80.0,-80.0,-89.0,-174.0,-83.0,-65.0,-40.0,-79.0,5.0,27.0,-56.0,-72.0,-24.0,REST
0.8688,35.0,-63.0,-74.0,-60.0,-43.0,-62.0,-106.0,-13.0,-59.0,-61.0,-45.0,-34.0,-55.0,-67.0,-54.0,-63.0,-45.0,-42.0,-39.0,-51.0,-1.0,-76.0,-39.0,-20.0,-64.0,-40.0,-17.0,-30.0,-6.0,6.0,-63.0,1.0,-17.0,-14.0,-8.0,-23.0,-38.0,-23.0,11.0,4.0,41.0,-9.0,-8.0,-27.0,-46.0,-48.0,-40.0,-8.0,9.0,13.0,11.0,11.0,10.0,-8.0,-84.0,-12.0,21.0,0.0,22.0,-44.0,-35.0,17.0,27.0,15.0,REST
0.875,-35.0,-10.0,31.0,32.0,26.0,22.0,-35.0,60.0,37.0,21.0,37.0,18.0,37.0,10.0,-48.0,22.0,32.0,35.0,36.0,25.0,42.0,-34.0,16.0,42.0,-21.0,23.0,26.0,8.0,22.0,25.0,-7.0,24.0,14.0,13.0,14.0,-8.0,-28.0,-4.0,2.0,18.0,41.0,22.0,4.0,-10.0,16.0,-67.0,-49.0,-16.0,-13.0,-7.0,-15.0,-19.0,-18.0,-35.0,-111.0,-65.0,-14.0,-18.0,-32.0,3.0,4.0,-36.0,-37.0,13.0,REST
0.8813,109.0,-43.0,-53.0,-47.0,-29.0,-54.0,-110.0,-5.0,-51.0,-55.0,-43.0,-27.0,-60.0,-62.0,-32.0,-70.0,-51.0,-58.0,-61.0,-68.0,-7.0,-92.0,-72.0,-50.0,-119.0,-68.0,-57.0,-93.0,-44.0,-75.0,-71.0,-39.0,-60.0,-72.0,-72.0,-93.0,-139.0,-81.0,-61.0,-67.0,-40.0,-25.0,-48.0,-59.0,44.0,-98.0,-93.0,-48.0,-53.0,-36.0,-44.0,-52.0,-48.0,-64.0,-152.0,-71.0,-22.0,-18.0,-37.0,-24.0,20.0,-33.0,-33.0,-5.0,REST
0.8875,52.0,-35.0,-30.0,-24.0,-18.0,-21.0,-61.0,40.0,-8.0,-12.0,-2.0,-2.0,3.0,-18.0,-30.0,-6.0,10.0,8.0,14.0,8.0,25.0,1.0,-1.0,-1.0,13.0,15.0,31.0,8.0,-26.0,0.0,33.0,29.0,30.0,33.0,33.0,11.0,-13.0,-36.0,36.0,34.0,58.0,67.0,45.0,17.0,-57.0,13.0,8.0,32.0,44.0,50.0,43.0,40.0,39.0,19.0,-66.0,16.0,59.0,23.0,45.0,-58.0,-28.0,34.0,44.0,25.0,REST
0.8938,18.0,0.0,33.0,41.0,26.0,41.0,4.0,75.0,27.0,18.0,27.0,15.0,26.0,16.0,-5.0,4.0,16.0,16.0,14.0,5.0,15.0,-10.0,-4.0,-6.0,25.0,-12.0,10.0,8.0,4.0,-44.0,-39.0,11.0,-11.0,-15.0,-13.0,-20.0,-22.0,-49.0,-3.0,-18.0,-25.0,3.0,-40.0,-49.0,24.0,-67.0,-102.0,-46.0,-49.0,-30.0,-42.0,-56.0,-46.0,-41.0,-133.0,-83.0,-33.0,-26.0,-55.0,21.0,20.0,-53.0,-53.0,-20.0,REST
0.9,93.0,-72.0,-87.0,-64.0,-48.0,-59.0,-98.0,-23.0,-84.0,-76.0,-69.0,-51.0,-84.0,-61.0,-8.0,-95.0,-74.0,-73.0,-72.0,-80.0,-29.0,-95.0,-69.0,-61.0,-60.0,-88.0,-49.0,-54.0,-62.0,-72.0,-127.0,-33.0,-58.0,-61.0,-52.0,-56.0,-31.0,-67.0,-22.0,-39.0,-55.0,8.0,-48.0,-46.0,-51.0,-59.0,-87.0,-38.0,-34.0,-18.0,-23.0,-27.0,-20.0,-19.0,-104.0,-53.0,1.0,-5.0,-1.0,-24.0,-26.0,-10.0,7.0,-22.0,REST
0.9062,-8.0,-41.0,-8.0,3.0,-7.0,1.0,-59.0,45.0,5.0,-3.0,6.0,-11.0,6.0,-8.0,-26.0,4.0,16.0,20.0,25.0,14.0,18.0,-35.0,18.0,23.0,3.0,6.0,35.0,40.0,30.0,11.0,-34.0,23.0,20.0,19.0,24.0,2.0,6.0,2.0,54.0,28.0,29.0,56.0,17.0,-1.0,-69.0,-11.0,-22.0,16.0,22.0,28.0,19.0,15.0,14.0,1.0,-83.0,-15.0,31.0,13.0,10.0,-6.0,-29.0,4.0,7.0,10.0,REST
0.9125,67.0,-37.0,-26.0,-17.0,-14.0,-13.0,-99.0,18.0,-25.0,-33.0,-24.0,-24.0,-39.0,-53.0,-25.0,-47.0,-33.0,-36.0,-38.0,-48.0,-10.0,-91.0,-67.0,-45.0,-64.0,-86.0,-52.0,-79.0,-56.0,-70.0,-111.0,-60.0,-70.0,-84.0,-79.0,-88.0,-88.0,-129.0,-61.0,-88.0,-54.0,-33.0,-76.0,-95.0,18.0,-107.0,-130.0,-60.0,-64.0,-46.0,-60.0,-68.0,-63.0,-68.0,-158.0,-84.0,-35.0,-18.0,-60.0,43.0,26.0,-51.0,-56.0,-12.0,REST
0.9187,49.0,-79.0,-93.0,-80.0,-65.0,-67.0,-144.0,-18.0,-64.0,-60.0,-50.0,-40.0,-62.0,-83.0,-52.0,-58.0,-47.0,-41.0,-36.0,-42.0,-1.0,-80.0,-65.0,-55.0,-78.0,-79.0,-40.0,-85.0,-54.0,-46.0,-95.0,-49.0,-40.0,-42.0,-42.0,-63.0,-73.0,-80.0,-5.0,-24.0,-5.0,34.0,-14.0,-22.0,-79.0,-24.0,-54.0,2.0,21.0,29.0,21.0,26.0,20.0,-1.0,-77.0,-1.0,46.0,21.0,38.0,-11.0,-35.0,31.0,44.0,13.0,REST
0.925,-59.0,-27.0,13.0,17.0,-6.0,2.0,-51.0,61.0,30.0,17.0,34.0,12.0,32.0,-6.0,-67.0,29.0,30.0,37.0,40.0,31.0,31.0,-42.0,-7.0,-8.0,-32.0,-6.0,22.0,-14.0,48.0,-24.0,-56.0,3.0,4.0,-1.0,-5.0,-26.0,-46.0,-10.0,23.0,8.0,-5.0,14.0,-16.0,-12.0,-19.0,-49.0,-79.0,-14.0,-4.0,6.0,-6.0,-10.0,-17.0,-49.0,-106.0,-37.0,-1.0,-11.0,-28.0,33.0,-5.0,-27.0,-27.0,-6.0,REST
0.9313,76.0,-53.0,-62.0,-53.0,-41.0,-55.0,-106.0,-18.0,-63.0,-64.0,-47.0,-25.0,-58.0,-69.0,-58.0,-73.0,-62.0,-59.0,-56.0,-65.0,-3.0,-134.0,-99.0,-93.0,-140.0,-76.0,-44.0,-59.0,-29.0,-115.0,-123.0,-36.0,-58.0,-69.0,-64.0,-66.0,-70.0,-103.0,-20.0,-83.0,-57.0,-46.0,-72.0,-90.0,6.0,-107.0,-129.0,-64.0,-59.0,-38.0,-48.0,-51.0,-53.0,-87.0,-124.0,-65.0,-26.0,-23.0,-42.0,14.0,2.0,-48.0,-34.0,-32.0,REST
0.9375,1.0,-50.0,-40.0,-36.0,-25.0,-15.0,-57.0,8.0,-28.0,-28.0,-12.0,-8.0,-7.0,-31.0,-63.0,-18.0,-12.0,-1.0,9.0,1.0,44.0,-40.0,-5.0,10.0,-63.0,-17.0,29.0,2.0,6.0,-34.0,-23.0,7.0,19.0,24.0,24.0,12.0,5.0,-25.0,43.0,11.0,33.0,53.0,36.0,-20.0,-91.0,-3.0,-39.0,13.0,27.0,33.0,27.0,36.0,28.0,-14.0,-55.0,5.0,41.0,16.0,39.0,-18.0,-48.0,16.0,35.0,6.0,REST
0.9438,-34.0,-22.0,19.0,17.0,12.0,18.0,-14.0,48.0,11.0,1.0,14.0,3.0,14.0,-7.0,-56.0,-8.0,-1.0,2.0,6.0,-1.0,48.0,-51.0,-18.0,-9.0,-59.0,-30.0,9.0,-8.0,-8.0,-73.0,-55.0,-13.0,-16.0,-24.0,-25.0,-30.0,-60.0,-44.0,-25.0,-48.0,-25.0,-45.0,-33.0,-63.0,31.0,-75.0,-131.0,-45.0,-58.0,-38.0,-52.0,-54.0,-55.0,-89.0,-133.0,-76.0,-41.0,-25.0,-56.0,52.0,11.0,-46.0,-58.0,-14.0,REST
0.95,98.0,-67.0,-80.0,-75.0,-56.0,-83.0,-123.0,-24.0,-80.0,-74.0,-64.0,-49.0,-84.0,-79.0,-52.0,-86.0,-70.0,-71.0,-67.0,-70.0,25.0,-96.0,-81.0,-56.0,-115.0,-71.0,-37.0,-45.0,-46.0,-115.0,-91.0,-36.0,-44.0,-55.0,-55.0,-59.0,-84.0,-50.0,-41.0,-26.0,-31.0,-28.0,-33.0,-30.0,-38.0,-67.0,-122.0,-29.0,-30.0,-4.0,-23.0,-19.0,-22.0,-62.0,-101.0,-33.0,9.0,-4.0,3.0,3.0,-22.0,20.0,8.0,-5.0,REST
0.9563,-1.0,-32.0,2.0,-3.0,-18.0,-25.0,-65.0,61.0,14.0,4.0,18.0,-6.0,6.0,-18.0,-64.0,20.0,28.0,30.0,34.0,26.0,54.0,5.0,14.0,26.0,-32.0,12.0,36.0,3.0,17.0,-1.0,-13.0,18.0,26.0,24.0,18.0,18.0,34.0,5.0,40.0,46.0,17.0,72.0,25.0,26.0,-79.0,-16.0,-71.0,23.0,25.0,46.0,22.0,22.0,16.0,-24.0,-82.0,-8.0,38.0,10.0,18.0,23.0,-31.0,32.0,13.0,3.0,REST
0.9625,42.0,-36.0,-17.0,-15.0,-19.0,-36.0,-96.0,39.0,-18.0,-25.0,-14.0,-17.0,-31.0,-53.0,-39.0,-36.0,-16.0,-26.0,-26.0,-33.0,18.0,-98.0,-59.0,1.0,-72.0,-60.0,-44.0,-128.0,6.0,-99.0,-96.0,-44.0,-60.0,-73.0,-84.0,-77.0,-85.0,-106.0,-60.0,-67.0,-61.0,-35.0,-73.0,-63.0,51.0,-93.0,-155.0,-49.0,-68.0,-32.0,-57.0,-61.0,-63.0,-87.0,-150.0,-90.0,-38.0,-20.0,-56.0,62.0,11.0,-36.0,-57.0,-48.0,REST
0.9688,55.0,-81.0,-86.0,-74.0,-59.0,-81.0,-136.0,-6.0,-65.0,-59.0,-44.0,-33.0,-43.0,-59.0,-36.0,-58.0,-38.0,-36.0,-21.0,-27.0,41.0,-82.0,-49.0,4.0,-70.0,-52.0,-23.0,-65.0,12.0,-72.0,-89.0,-36.0,-32.0,-29.0,-31.0,-35.0,-34.0,-90.0,-16.0,1.0,10.0,38.0,0.0,-23.0,-49.0,-8.0,-68.0,13.0,11.0,36.0,22.0,34.0,21.0,-9.0,-69.0,-5.0,42.0,27.0,40.0,-6.0,-46.0,44.0,45.0,-19.0,REST
0.975,-46.0,-37.0,14.0,24.0,13.0,26.0,-26.0,67.0,22.0,11.0,36.0,22.0,54.0,9.0,-39.0,21.0,28.0,43.0,55.0,42.0,67.0,-2.0,2.0,0.0,-17.0,3.0,36.0,36.0,-33.0,-25.0,-56.0,-4.0,3.0,8.0,18.0,31.0,91.0,-114.0,1.0,6.0,5.0,41.0,-1.0,-14.0,12.0,-40.0,-72.0,7.0,-13.0,10.0,-8.0,-6.0,-14.0,-36.0,-106.0,-48.0,2.0,-1.0,-24.0,34.0,-7.0,-11.0,-23.0,-29.0,REST
0.9812,82.0,-70.0,-68.0,-45.0,-24.0,-24.0,-100.0,-7.0,-66.0,-67.0,-42.0,-17.0,-42.0,-59.0,-35.0,-76.0,-62.0,-53.0,-49.0,-64.0,14.0,-148.0,-119.0,-145.0,-115.0,-80.0,-51.0,-46.0,-153.0,-137.0,-131.0,-61.0,-70.0,-76.0,-65.0,-46.0,-52.0,-109.0,-56.0,-72.0,-55.0,-37.0,-75.0,-65.0,58.0,-100.0,-118.0,-37.0,-64.0,-37.0,-50.0,-52.0,-54.0,-71.0,-129.0,-76.0,-25.0,-16.0,-41.0,11.0,1.0,-25.0,-30.0,-46.0,REST
0.9875,29.0,-61.0,-43.0,-28.0,-28.0,-32.0,-124.0,22.0,-25.0,-26.0,-2.0,-5.0,-10.0,-24.0,-50.0,-13.0,-5.0,10.0,17.0,-4.0,46.0,-64.0,-27.0,8.0,-48.0,-21.0,7.0,-52.0,54.0,-77.0,-60.0,-16.0,3.0,8.0,-3.0,-14.0,-88.0,54.0,17.0,55.0,24.0,49.0,15.0,16.0,-44.0,12.0,-33.0,36.0,32.0,43.0,40.0,46.0,35.0,10.0,-42.0,14.0,56.0,30.0,51.0,-23.0,-32.0,58.0,58.0,13.0,REST
0.9938,-1.0,-26.0,16.0,24.0,1.0,-4.0,-80.0,53.0,14.0,5.0,29.0,7.0,10.0,-1.0,-24.0,4.0,14.0,21.0,18.0,1.0,41.0,-8.0,6.0,68.0,-5.0,-37.0,-20.0,-141.0,135.0,-45.0,-87.0,-39.0,-39.0,-42.0,-61.0,-66.0,-119.0,6.0,-22.0,-5.0,-41.0,-27.0,-37.0,-58.0,66.0,-67.0,-117.0,-33.0,-52.0,-31.0,-40.0,-44.0,-49.0,-75.0,-124.0,-77.0,-29.0,-21.0,-52.0,17.0,23.0,-23.0,-49.0,-16.0,REST
1.0,102.0,-75.0,-89.0,-73.0,-58.0,-74.0,-139.0,-16.0,-79.0,-76.0,-56.0,-39.0,-65.0,-64.0,-34.0,-78.0,-67.0,-57.0,-56.0,-64.0,14.0,-67.0,-58.0,-19.0,-33.0,-80.0,-50.0,-129.0,3.0,-42.0,-107.0,-60.0,-63.0,-63.0,-62.0,-55.0,-59.0,-37.0,-17.0,-18.0,-24.0,-24.0,-37.0,-73.0,6.0,-62.0,-92.0,-24.0,-35.0,-11.0,-15.0,-11.0,-14.0,-42.0,-91.0,-60.0,-1.0,-1.0,8.0,-39.0,-27.0,17.0,15.0,-16.0,REST
1.0063,-11.0,-33.0,1.0,9.0,5.0,18.0,-36.0,66.0,14.0,4.0,27.0,13.0,35.0,5.0,-54.0,24.0,20.0,39.0,44.0,31.0,48.0,-8.0,26.0,48.0,16.0,14.0,44.0,6.0,5.0,22.0,-3.0,-4.0,23.0,28.0,33.0,39.0,76.0,-40.0,45.0,49.0,39.0,69.0,22.0,7.0,-36.0,7.0,-41.0,21.0,8.0,21.0,14.0,19.0,12.0,-16.0,-67.0,-39.0,12.0,5.0,11.0,-35.0,-40.0,15.0,7.0,-1.0,REST
1.0125,38.0,-33.0,-18.0,-11.0,-1.0,-7.0,-54.0,33.0,-27.0,-36.0,-18.0,-17.0,-35.0,-44.0,-32.0,-43.0,-41.0,-36.0,-41.0,-55.0,-23.0,-104.0,-63.0,-39.0,-100.0,-51.0,-38.0,-99.0,-84.0,-79.0,-73.0,-61.0,-61.0,-73.0,-77.0,-65.0,-71.0,-142.0,-48.0,-72.0,-70.0,-46.0,-67.0,-55.0,51.0,-87.0,-145.0,-62.0,-92.0,-70.0,-85.0,-87.0,-85.0,-96.0,-139.0,-110.0,-69.0,-48.0,-86.0,-12.0,6.0,-61.0,-83.0,-49.0,REST
1.0188,38.0,-74.0,-88.0,-79.0,-55.0,-78.0,-108.0,-4.0,-75.0,-71.0,-55.0,-46.0,-71.0,-76.0,-20.0,-68.0,-61.0,-55.0,-53.0,-63.0,-22.0,-81.0,-67.0,-25.0,-74.0,-51.0,-25.0,-98.0,-10.0,-72.0,-66.0,-51.0,-33.0,-35.0,-37.0,-40.0,-75.0,-12.0,-2.0,7.0,16.0,25.0,8.0,-10.0,-41.0,-2.0,-53.0,9.0,-11.0,-1.0,-12.0,-1.0,-7.0,-25.0,-64.0,-33.0,11.0,-13.0,3.0,-83.0,-62.0,9.0,3.0,-37.0,REST
1.025,-97.0,-24.0,18.0,23.0,-3.0,-1.0,-48.0,76.0,21.0,10.0,33.0,2.0,20.0,-19.0,-5.0,20.0,23.0,26.0,23.0,8.0,17.0,-5.0,-1.0,15.0,13.0,7.0,32.0,-23.0,24.0,8.0,-8.0,-10.0,7.0,8.0,-1.0,4.0,-21.0,54.0,-6.0,10.0,50.0,22.0,13.0,-25.0,27.0,-26.0,-63.0,12.0,-25.0,-7.0,-32.0,-26.0,-35.0,-63.0,-141.0,-80.0,-22.0,-26.0,-50.0,-27.0,-25.0,-41.0,-53.0,-42.0,REST
1.0312,22.0,-48.0,-51.0,-35.0,-35.0,-53.0,-119.0,10.0,-61.0,-59.0,-39.0,-33.0,-69.0,-92.0,7.0,-76.0,-54.0,-62.0,-69.0,-86.0,-31.0,-133.0,-104.0,-123.0,-84.0,-73.0,-39.0,-52.0,-115.0,-72.0,-61.0,-54.0,-55.0,-63.0,-62.0,-33.0,-24.0,-77.0,-92.0,-104.0,-44.0,-45.0,-52.0,-48.0,45.0,-95.0,-124.0,-34.0,-75.0,-46.0,-68.0,-67.0,-67.0,-89.0,-176.0,-110.0,-47.0,-35.0,-56.0,-43.0,-8.0,-49.0,-47.0,-41.0,REST
1.0375,-40.0,-45.0,-35.0,-19.0,-14.0,-13.0,-74.0,35.0,-30.0,-28.0,-7.0,-15.0,-20.0,-56.0,-12.0,-25.0,-5.0,-4.0,-5.0,-18.0,6.0,-57.0,-21.0,-59.0,-26.0,-15.0,32.0,32.0,-41.0,-20.0,15.0,4.0,22.0,26.0,31.0,47.0,79.0,-41.0,5.0,-14.0,32.0,58.0,48.0,53.0,-54.0,-5.0,-44.0,36.0,13.0,29.0,11.0,18.0,16.0,2.0,-84.0,-23.0,23.0,1.0,20.0,-101.0,-56.0,16.0,21.0,-7.0,REST
1.0437,-97.0,-22.0,15.0,25.0,11.0,18.0,-44.0,59.0,3.0,-8.0,15.0,-4.0,0.0,-33.0,-1.0,-11.0,4.0,2.0,-7.0,-22.0,-3.0,-45.0,-20.0,-16.0,-59.0,-29.0,-5.0,-71.0,-30.0,-14.0,-33.0,-12.0,-21.0,-33.0,-44.0,-33.0,-34.0,-50.0,-55.0,-41.0,-31.0,-39.0,-28.0,-37.0,44.0,-98.0,-132.0,-31.0,-67.0,-40.0,-65.0,-63.0,-64.0,-63.0,-172.0,-95.0,-52.0,-35.0,-73.0,-40.0,6.0,-52.0,-65.0,-32.0,REST
1.05,24.0,-62.0,-77.0,-63.0,-47.0,-74.0,-138.0,-1.0,-77.0,-72.0,-52.0,-41.0,-74.0,-89.0,3.0,-77.0,-55.0,-61.0,-65.0,-77.0,-15.0,-93.0,-61.0,9.0,-88.0,-58.0,-43.0,-140.0,-23.0,-18.0,-44.0,-25.0,-30.0,-47.0,-63.0,-58.0,-90.0,-36.0,-35.0,-43.0,-34.0,-32.0,-20.0,-43.0,-11.0,-55.0,-97.0,-7.0,-28.0,-5.0,-20.0,-11.0,-15.0,-17.0,-129.0,-52.0,6.0,-2.0,1.0,-80.0,-18.0,4.0,10.0,-18.0,REST
1.0563,-66.0,-6.0,27.0,34.0,31.0,17.0,-49.0,93.0,30.0,26.0,51.0,21.0,45.0,-1.0,-6.0,39.0,55.0,51.0,49.0,35.0,43.0,21.0,40.0,75.0,34.0,42.0,63.0,-17.0,115.0,84.0,39.0,27.0,54.0,54.0,25.0,35.0,1.0,62.0,62.0,37.0,57.0,32.0,43.0,35.0,-25.0,-1.0,-28.0,41.0,25.0,38.0,23.0,26.0,20.0,14.0,-97.0,-30.0,26.0,2.0,11.0,-84.0,-33.0,3.0,7.0,-12.0,REST
1.0625,-22.0,-12.0,5.0,20.0,28.0,0.0,-67.0,59.0,-8.0,-13.0,12.0,-2.0,-17.0,-39.0,-13.0,-26.0,-7.0,-18.0,-27.0,-36.0,-14.0,-37.0,-50.0,-14.0,-40.0,-40.0,-16.0,-72.0,-14.0,-25.0,-50.0,-38.0,-33.0,-42.0,-69.0,-33.0,-63.0,-16.0,-43.0,-34.0,-25.0,-32.0,-61.0,-42.0,60.0,-105.0,-129.0,-43.0,-75.0,-46.0,-69.0,-70.0,-69.0,-68.0,-171.0,-106.0,-56.0,-43.0,-76.0,-54.0,6.0,-68.0,-68.0,-52.0,REST
1.0688,8.0,-43.0,-53.0,-32.0,-10.0,-33.0,-121.0,23.0,-49.0,-43.0,-20.0,-19.0,-41.0,-64.0,-24.0,-50.0,-30.0,-32.0,-30.0,-31.0,-8.0,-50.0,-42.0,-20.0,-48.0,-22.0,12.0,-23.0,-26.0,25.0,6.0,-7.0,15.0,13.0,3.0,21.0,-2.0,-12.0,15.0,59.0,27.0,39.0,14.0,24.0,-53.0,-12.0,-58.0,19.0,7.0,22.0,13.0,23.0,21.0,18.0,-80.0,-18.0,27.0,5.0,30.0,-101.0,-47.0,16.0,40.0,-11.0,REST
1.075,-78.0,18.0,63.0,73.0,63.0,61.0,-33.0,99.0,49.0,41.0,67.0,41.0,67.0,25.0,-23.0,36.0,51.0,54.0,55.0,55.0,35.0,3.0,31.0,27.0,12.0,47.0,75.0,41.0,52.0,72.0,78.0,36.0,58.0,56.0,46.0,58.0,31.0,-8.0,14.0,54.0,47.0,20.0,23.0,38.0,3.0,-16.0,-76.0,14.0,-11.0,1.0,-6.0,-7.0,-5.0,9.0,-106.0,-57.0,-11.0,-7.0,-16.0,-37.0,0.0,-21.0,-16.0,-11.0,REST
1.0813,39.0,-20.0,-27.0,-9.0,13.0,-25.0,-95.0,12.0,-46.0,-42.0,-18.0,-8.0,-37.0,-61.0,-20.0,-64.0,-40.0,-46.0,-43.0,-48.0,-19.0,-105.0,-76.0,-67.0,-105.0,-45.0,-20.0,-48.0,-46.0,-48.0,-3.0,-39.0,-34.0,-42.0,-48.0,-24.0,-41.0,-84.0,-79.0,-52.0,-10.0,-33.0,-43.0,-33.0,35.0,-76.0,-128.0,-33.0,-63.0,-39.0,-48.0,-46.0,-46.0,-17.0,-140.0,-93.0,-34.0,-17.0,-31.0,-44.0,12.0,-30.0,-24.0,-37.0,REST
1.0875,-45.0,-27.0,-21.0,-8.0,11.0,-22.0,-88.0,37.0,-13.0,-9.0,12.0,3.0,3.0,-39.0,-22.0,-5.0,9.0,13.0,19.0,11.0,16.0,-36.0,-5.0,16.0,-21.0,11.0,40.0,5.0,42.0,66.0,45.0,-8.0,32.0,37.0,32.0,36.0,35.0,-59.0,24.0,42.0,69.0,60.0,58.0,70.0,-82.0,19.0,-24.0,40.0,31.0,39.0,34.0,45.0,30.0,50.0,-78.0,-8.0,49.0,21.0,41.0,-83.0,-37.0,29.0,40.0,-12.0,REST
1.0938,-106.0,4.0,37.0,47.0,53.0,37.0,-63.0,81.0,26.0,21.0,41.0,22.0,31.0,-16.0,-2.0,12.0,22.0,23.0,17.0,7.0,13.0,-25.0,-12.0,-6.0,-1.0,-3.0,16.0,-24.0,-7.0,47.0,6.0,-31.0,-7.0,-8.0,-17.0,-4.0,-5.0,-102.0,-22.0,-26.0,-3.0,-25.0,-23.0,14.0,6.0,-67.0,-97.0,-25.0,-56.0,-34.0,-50.0,-53.0,-66.0,-56.0,-170.0,-82.0,-33.0,-27.0,-76.0,-45.0,16.0,-63.0,-76.0,-50.0,REST
1.1,-5.0,-47.0,-73.0,-57.0,-25.0,-51.0,-143.0,4.0,-76.0,-66.0,-50.0,-37.0,-65.0,-91.0,-16.0,-80.0,-58.0,-64.0,-67.0,-73.0,-40.0,-110.0,-73.0,-73.0,-61.0,-51.0,-27.0,-71.0,-67.0,-27.0,-50.0,-63.0,-38.0,-39.0,-46.0,-34.0,-62.0,-28.0,-37.0,-22.0,-32.0,-34.0,-43.0,8.0,-64.0,-49.0,-87.0,-17.0,-36.0,-7.0,-21.0,-16.0,-31.0,-38.0,-130.0,-37.0,8.0,0.0,-11.0,-92.0,-12.0,1.0,4.0,-33.0,REST
1.1062,-95.0,-7.0,17.0,17.0,17.0,20.0,-56.0,92.0,25.0,20.0,38.0,13.0,40.0,-10.0,-33.0,31.0,48.0,42.0,45.0,35.0,10.0,11.0,29.0,25.0,26.0,48.0,70.0,30.0,33.0,51.0,22.0,8.0,49.0,55.0,49.0,43.0,13.0,50.0,54.0,58.0,21.0,56.0,24.0,80.0,-102.0,36.0,-32.0,45.0,31.0,52.0,40.0,48.0,30.0,22.0,-76.0,7.0,52.0,30.0,35.0,-52.0,4.0,47.0,45.0,16.0,REST
1.1125,-24.0,0.0,11.0,14.0,21.0,13.0,-68.0,58.0,-1.0,-4.0,12.0,4.0,-9.0,-30.0,-20.0,-16.0,13.0,-6.0,-12.0,-19.0,0.0,-45.0,-59.0,-16.0,-92.0,-27.0,-8.0,-54.0,-41.0,-25.0,-54.0,-42.0,-32.0,-39.0,-50.0,-41.0,-55.0,-54.0,-49.0,-50.0,-36.0,-23.0,-54.0,-3.0,5.0,-57.0,-114.0,-20.0,-54.0,-24.0,-40.0,-37.0,-48.0,-40.0,-157.0,-60.0,-11.0,0.0,-40.0,-21.0,67.0,-12.0,-28.0,-12.0,REST
1.1188,-8.0,-36.0,-58.0,-49.0,-25.0,-39.0,-105.0,10.0,-46.0,-37.0,-25.0,-21.0,-44.0,-61.0,-32.0,-36.0,-7.0,-22.0,-20.0,-25.0,2.0,-68.0,-55.0,-23.0,-71.0,-36.0,-5.0,-49.0,37.0,-15.0,-50.0,-44.0,-10.0,-10.0,-20.0,-20.0,-21.0,-23.0,-23.0,3.0,44.0,30.0,12.0,60.0,-69.0,-21.0,-16.0,49.0,26.0,41.0,34.0,42.0,29.0,26.0,-88.0,22.0,68.0,40.0,47.0,-97.0,6.0,63.0,60.0,17.0,REST
1.125,-139.0,1.0,33.0,31.0,19.0,35.0,-20.0,89.0,44.0,31.0,46.0,19.0,45.0,-3.0,-33.0,48.0,59.0,48.0,51.0,43.0,11.0,-2.0,13.0,18.0,14.0,-1.0,41.0,22.0,31.0,3.0,-25.0,-26.0,16.0,15.0,7.0,6.0,21.0,-28.0,-5.0,-20.0,45.0,21.0,9.0,61.0,15.0,-42.0,-38.0,39.0,6.0,25.0,7.0,8.0,-1.0,1.0,-96.0,-13.0,25.0,15.0,-7.0,-33.0,40.0,21.0,2.0,21.0,REST
1.1313,-36.0,-44.0,-59.0,-50.0,-36.0,-41.0,-101.0,14.0,-49.0,-54.0,-38.0,-27.0,-49.0,-67.0,-10.0,-58.0,-39.0,-55.0,-50.0,-55.0,-35.0,-102.0,-99.0,-108.0,-103.0,-84.0,-43.0,-56.0,-97.0,-110.0,-79.0,-88.0,-62.0,-78.0,-78.0,-67.0,-52.0,-114.0,-72.0,-94.0,-25.0,-30.0,-61.0,-24.0,46.0,-77.0,-131.0,-18.0,-55.0,-20.0,-40.0,-39.0,-42.0,-42.0,-129.0,-39.0,-6.0,-5.0,-27.0,-36.0,44.0,11.0,-6.0,-10.0,REST
1.1375,-88.0,-48.0,-49.0,-41.0,-40.0,-36.0,-92.0,31.0,-23.0,-26.0,-12.0,-18.0,-11.0,-28.0,-20.0,-11.0,6.0,-3.0,8.0,2.0,-7.0,-52.0,-35.0,-36.0,-16.0,-11.0,24.0,-13.0,25.0,-55.0,15.0,-35.0,16.0,8.0,9.0,3.0,17.0,-27.0,3.0,43.0,66.0,48.0,33.0,48.0,-51.0,16.0,-51.0,62.0,32.0,45.0,36.0,42.0,35.0,13.0,-66.0,27.0,57.0,18.0,41.0,-86.0,-25.0,64.0,53.0,1.0,REST
1.1438,-126.0,-16.0,8.0,10.0,-2.0,4.0,-45.0,52.0,11.0,2.0,14.0,-4.0,16.0,10.0,-17.0,3.0,17.0,5.0,9.0,-2.0,-5.0,-44.0,-30.0,1.0,-54.0,-29.0,-5.0,-68.0,-51.0,-73.0,-35.0,-63.0,-24.0,-41.0,-48.0,-45.0,-19.0,-47.0,-61.0,-6.0,-10.0,-28.0,-39.0,-12.0,51.0,-69.0,-125.0,-4.0,-50.0,-37.0,-49.0,-52.0,-51.0,-79.0,-146.0,-68.0,-34.0,-34.0,-68.0,-35.0,13.0,-34.0,-61.0,-41.0,REST
1.15,3.0,-63.0,-94.0,-86.0,-65.0,-84.0,-127.0,-32.0,-82.0,-76.0,-67.0,-50.0,-67.0,-62.0,-10.0,-82.0,-64.0,-74.0,-67.0,-79.0,-16.0,-108.0,-87.0,-36.0,-104.0,-84.0,-57.0,-115.0,-64.0,-74.0,-67.0,-100.0,-56.0,-69.0,-74.0,-71.0,-57.0,-66.0,-52.0,-34.0,-43.0,-36.0,-52.0,-16.0,-13.0,-61.0,-89.0,4.0,-32.0,-18.0,-27.0,-22.0,-27.0,-53.0,-114.0,-33.0,-2.0,-16.0,-17.0,-87.0,-27.0,1.0,-3.0,-35.0,REST
1.1562,-97.0,-24.0,-2.0,-4.0,-15.0,-20.0,-49.0,50.0,14.0,10.0,14.0,-6.0,16.0,-4.0,-41.0,21.0,26.0,23.0,27.0,7.0,27.0,-22.0,7.0,24.0,7.0,10.0,41.0,-8.0,70.0,44.0,27.0,-33.0,32.0,29.0,21.0,14.0,6.0,3.0,37.0,42.0,35.0,36.0,14.0,55.0,-36.0,3.0,-15.0,60.0,21.0,26.0,13.0,15.0,6.0,-9.0,-91.0,-5.0,20.0,-4.0,-2.0,-73.0,-36.0,11.0,2.0,-28.0,REST
1.1625,-51.0,-21.0,-8.0,-6.0,-11.0,-36.0,-71.0,21.0,-17.0,-20.0,-18.0,-20.0,-37.0,-24.0,-43.0,-34.0,-27.0,-35.0,-40.0,-61.0,-14.0,-92.0,-71.0,-64.0,-70.0,-51.0,-21.0,-59.0,-94.0,-26.0,-59.0,-89.0,-42.0,-54.0,-52.0,-36.0,-8.0,-135.0,-78.0,-65.0,-49.0,-19.0,-67.0,-23.0,68.0,-88.0,-129.0,-19.0,-77.0,-55.0,-72.0,-79.0,-73.0,-76.0,-163.0,-88.0,-58.0,-40.0,-79.0,-29.0,12.0,-56.0,-75.0,-70.0,REST
1.1687,-22.0,-54.0,-70.0,-58.0,-44.0,-68.0,-115.0,-21.0,-61.0,-52.0,-45.0,-31.0,-53.0,-37.0,-42.0,-54.0,-45.0,-44.0,-40.0,-57.0,-26.0,-55.0,-53.0,-56.0,-19.0,-36.0,-3.0,-11.0,-61.0,-16.0,-40.0,-81.0,-6.0,-6.0,7.0,13.0,72.0,-117.0,-30.0,-8.0,18.0,19.0,-2.0,38.0,-42.0,-56.0,-52.0,45.0,7.0,22.0,8.0,12.0,11.0,-11.0,-87.0,1.0,29.0,6.0,18.0,-91.0,-42.0,25.0,25.0,-26.0,REST
1.175,-129.0,-2.0,36.0,39.0,16.0,14.0,-63.0,54.0,36.0,29.0,41.0,14.0,36.0,29.0,-35.0,33.0,33.0,39.0,39.0,17.0,-15.0,31.0,27.0,14.0,29.0,31.0,46.0,12.0,76.0,5.0,21.0,-44.0,30.0,27.0,26.0,6.0,21.0,10.0,6.0,7.0,32.0,20.0,2.0,37.0,22.0,-51.0,-62.0,45.0,-5.0,11.0,-7.0,-12.0,-14.0,-35.0,-108.0,-29.0,-2.0,-10.0,-36.0,-36.0,-4.0,-24.0,-36.0,-32.0,REST
1.1813,-21.0,-34.0,-41.0,-32.0,-33.0,-62.0,-144.0,-15.0,-44.0,-43.0,-31.0,-26.0,-58.0,-34.0,-21.0,-54.0,-45.0,-45.0,-49.0,-70.0,-40.0,-80.0,-70.0,-25.0,-86.0,-54.0,-42.0,-132.0,20.0,-98.0,-40.0,-91.0,-42.0,-59.0,-66.0,-88.0,-129.0,-13.0,-74.0,-43.0,-33.0,-37.0,-58.0,-49.0,60.0,-76.0,-121.0,5.0,-52.0,-27.0,-40.0,-44.0,-45.0,-48.0,-128.0,-63.0,-31.0,-18.0,-46.0,-36.0,3.0,-34.0,-41.0,-64.0,REST
1.1875,-67.0,-29.0,-18.0,-11.0,-15.0,-31.0,-85.0,26.0,-5.0,-2.0,17.0,5.0,5.0,8.0,-26.0,7.0,11.0,25.0,26.0,8.0,13.0,-20.0,3.0,30.0,-8.0,20.0,41.0,-46.0,64.0,1.0,8.0,-31.0,44.0,41.0,41.0,20.0,11.0,35.0,-3.0,75.0,58.0,59.0,39.0,20.0,-48.0,19.0,-18.0,85.0,45.0,51.0,48.0,55.0,48.0,41.0,-38.0,10.0,40.0,26.0,46.0,-64.0,-51.0,37.0,42.0,-23.0,REST
1.1938,-85.0,12.0,50.0,58.0,36.0,27.0,-11.0,72.0,40.0,36.0,58.0,34.0,42.0,19.0,-6.0,24.0,30.0,39.0,34.0,17.0,10.0,-4.0,2.0,6.0,18.0,17.0,29.0,-39.0,12.0,7.0,-33.0,-51.0,12.0,-1.0,3.0,-3.0,2.0,-13.0,-26.0,4.0,-11.0,-23.0,-34.0,-12.0,33.0,-69.0,-102.0,19.0,-41.0,-27.0,-34.0,-32.0,-34.0,-41.0,-122.0,-77.0,-47.0,-17.0,-51.0,-3.0,3.0,-49.0,-59.0,-49.0,REST
1.2,32.0,-37.0,-55.0,-38.0,-35.0,-63.0,-105.0,-8.0,-54.0,-43.0,-28.0,-16.0,-53.0,-58.0,-2.0,-69.0,-52.0,-46.0,-45.0,-58.0,-15.0,-87.0,-63.0,-31.0,-37.0,-31.0,-18.0,-61.0,-42.0,-60.0,-63.0,-77.0,-21.0,-32.0,-23.0,-26.0,-26.0,-24.0,-17.0,-19.0,-27.0,-14.0,-34.0,2.0,-7.0,-48.0,-89.0,35.0,-25.0,-13.0,-12.0,1.0,-8.0,-13.0,-92.0,-36.0,-2.0,3.0,7.0,-71.0,-28.0,-2.0,5.0,-52.0,REST
1.2063,-86.0,2.0,33.0,42.0,24.0,15.0,-13.0,68.0,41.0,42.0,58.0,35.0,52.0,30.0,-5.0,39.0,41.0,59.0,67.0,51.0,48.0,16.0,36.0,50.0,18.0,66.0,80.0,36.0,39.0,13.0,44.0,6.0,70.0,72.0,80.0,64.0,69.0,14.0,63.0,60.0,70.0,76.0,45.0,36.0,6.0,27.0,1.0,105.0,53.0,61.0,58.0,67.0,51.0,46.0,-29.0,20.0,56.0,42.0,54.0,-50.0,-7.0,43.0,46.0,-5.0,REST
1.2125,5.0,29.0,43.0,56.0,50.0,14.0,-11.0,66.0,34.0,35.0,50.0,41.0,18.0,1.0,23.0,13.0,19.0,31.0,26.0,8.0,33.0,-36.0,-55.0,-72.0,-46.0,-8.0,10.0,-32.0,-90.0,-51.0,-22.0,-29.0,5.0,-10.0,-5.0,-15.0,-25.0,-128.0,-27.0,-72.0,-12.0,-13.0,-51.0,-60.0,114.0,-78.0,-67.0,43.0,-25.0,4.0,-14.0,-18.0,-26.0,-28.0,-96.0,-53.0,-12.0,7.0,-33.0,-7.0,52.0,-19.0,-37.0,-39.0,REST
1.2188,42.0,-23.0,-33.0,-15.0,-5.0,-49.0,-71.0,13.0,-25.0,-14.0,2.0,5.0,-29.0,-48.0,-10.0,-29.0,-16.0,-5.0,-5.0,-22.0,13.0,-58.0,-61.0,-66.0,-52.0,-27.0,3.0,-21.0,-39.0,-33.0,-41.0,-39.0,8.0,3.0,12.0,2.0,6.0,-15.0,-22.0,-20.0,17.0,23.0,-1.0,20.0,-31.0,-37.0,-50.0,51.0,0.0,24.0,10.0,17.0,6.0,-2.0,-65.0,-17.0,12.0,1.0,10.0,-116.0,-59.0,11.0,8.0,-59.0,REST
1.225,-101.0,-20.0,30.0,39.0,10.0,5.0,-14.0,52.0,22.0,17.0,35.0,11.0,31.0,12.0,-59.0,5.0,13.0,26.0,24.0,8.0,-1.0,8.0,21.0,48.0,3.0,-3.0,32.0,-14.0,62.0,-7.0,-29.0,-42.0,11.0,6.0,6.0,3.0,-2.0,80.0,-13.0,25.0,-16.0,16.0,-22.0,38.0,-31.0,-51.0,-117.0,-1.0,-51.0,-25.0,-45.0,-37.0,-46.0,-39.0,-113.0,-73.0,-54.0,-37.0,-53.0,-76.0,-49.0,-51.0,-55.0,-74.0,REST
1.2313,-25.0,-72.0,-71.0,-54.0,-57.0,-91.0,-110.0,-27.0,-79.0,-74.0,-61.0,-49.0,-74.0,-58.0,-41.0,-99.0,-83.0,-82.0,-84.0,-92.0,-60.0,-113.0,-96.0,-37.0,-95.0,-103.0,-77.0,-155.0,-21.0,-129.0,-128.0,-127.0,-83.0,-97.0,-98.0,-89.0,-108.0,-26.0,-92.0,-40.0,-117.0,-49.0,-97.0,-41.0,-28.0,-104.0,-169.0,-54.0,-96.0,-70.0,-86.0,-77.0,-79.0,-59.0,-145.0,-95.0,-81.0,-47.0,-63.0,-81.0,-32.0,-60.0,-55.0,-83.0,REST
1.2375,-115.0,-85.0,-68.0,-49.0,-50.0,-77.0,-84.0,-22.0,-57.0,-45.0,-31.0,-32.0,-25.0,-13.0,-40.0,-47.0,-33.0,-27.0,-20.0,-25.0,-23.0,-73.0,-42.0,-2.0,-44.0,-37.0,-9.0,-45.0,24.0,-77.0,-71.0,-83.0,-11.0,-5.0,5.0,11.0,18.0,30.0,-25.0,57.0,-5.0,35.0,-3.0,42.0,-126.0,-11.0,-69.0,20.0,-5.0,-1.0,-9.0,7.0,1.0,13.0,-83.0,-17.0,-10.0,-16.0,7.0,-129.0,-80.0,1.0,9.0,-48.0,REST
1.2438,-150.0,-54.0,-9.0,6.0,-14.0,-34.0,-33.0,2.0,-22.0,-20.0,-4.0,-20.0,1.0,13.0,-51.0,-39.0,-22.0,-21.0,-21.0,-29.0,-31.0,-66.0,-51.0,-55.0,-78.0,-61.0,-24.0,-38.0,-41.0,-126.0,-105.0,-111.0,-50.0,-51.0,-40.0,-25.0,-17.0,-29.0,-95.0,-27.0,-45.0,-16.0,-80.0,-4.0,-23.0,-93.0,-154.0,-44.0,-99.0,-78.0,-97.0,-89.0,-89.0,-74.0,-166.0,-106.0,-97.0,-71.0,-101.0,-60.0,-30.0,-89.0,-93.0,-88.0,REST
1.25,-42.0,-110.0,-123.0,-99.0,-95.0,-131.0,-121.0,-82.0,-123.0,-108.0,-98.0,-81.0,-97.0,-84.0,-73.0,-132.0,-110.0,-110.0,-107.0,-111.0,-69.0,-128.0,-127.0,-107.0,-160.0,-131.0,-85.0,-103.0,-87.0,-183.0,-152.0,-154.0,-92.0,-95.0,-81.0,-70.0,-69.0,-68.0,-116.0,-57.0,-67.0,2.0,-84.0,-8.0,-63.0,-89.0,-133.0,-29.0,-80.0,-59.0,-76.0,-61.0,-67.0,-62.0,-136.0,-60.0,-51.0,-52.0,-47.0,-98.0,-56.0,-37.0,-26.0,-71.0,REST
1.2563,-163.0,-74.0,-44.0,-33.0,-44.0,-57.0,-45.0,1.0,-30.0,-25.0,-16.0,-35.0,-7.0,-9.0,-78.0,-22.0,-14.0,-9.0,-2.0,-12.0,-16.0,-38.0,-20.0,24.0,-74.0,-39.0,4.0,-39.0,32.0,-101.0,-56.0,-77.0,-8.0,-2.0,6.0,3.0,3.0,-12.0,-19.0,33.0,-4.0,77.0,3.0,59.0,-78.0,-18.0,-59.0,42.0,-5.0,-2.0,-13.0,-1.0,-14.0,-5.0,-77.0,-7.0,-3.0,-21.0,-6.0,-73.0,-46.0,-3.0,6.0,-22.0,REST
1.2625,-100.0,-59.0,-43.0,-30.0,-26.0,-54.0,-54.0,-6.0,-47.0,-43.0,-31.0,-38.0,-41.0,-22.0,-48.0,-60.0,-45.0,-48.0,-49.0,-59.0,-33.0,-126.0,-104.0,-80.0,-127.0,-99.0,-61.0,-93.0,-102.0,-179.0,-118.0,-121.0,-80.0,-79.0,-67.0,-46.0,-30.0,-115.0,-98.0,-55.0,-95.0,-36.0,-101.0,-11.0,5.0,-109.0,-166.0,-33.0,-91.0,-65.0,-81.0,-78.0,-86.0,-67.0,-145.0,-81.0,-79.0,-46.0,-81.0,-32.0,6.0,-73.0,-72.0,-69.0,REST
1.2688,-71.0,-92.0,-99.0,-79.0,-54.0,-85.0,-83.0,-39.0,-88.0,-69.0,-55.0,-45.0,-54.0,-46.0,-54.0,-81.0,-62.0,-55.0,-48.0,-56.0,-37.0,-143.0,-112.0,-119.0,-162.0,-88.0,-41.0,-19.0,-153.0,-178.0,-97.0,-99.0,-46.0,-33.0,-8.0,18.0,63.0,-92.0,-50.0,-4.0,-31.0,18.0,-45.0,56.0,-115.0,-34.0,-93.0,5.0,-17.0,-3.0,-10.0,7.0,-10.0,-14.0,-76.0,-12.0,-8.0,-10.0,3.0,-109.0,-63.0,-4.0,10.0,-61.0,REST
1.275,-189.0,-50.0,1.0,9.0,-5.0,-5.0,-13.0,31.0,-1.0,3.0,18.0,-1.0,32.0,20.0,-51.0,-2.0,12.0,18.0,23.0,8.0,-31.0,-71.0,-31.0,-29.0,-90.0,-41.0,-2.0,-31.0,2.0,-148.0,-56.0,-59.0,-24.0,-15.0,-11.0,1.0,2.0,-3.0,-41.0,1.0,-3.0,16.0,-29.0,53.0,-64.0,-36.0,-96.0,-5.0,-33.0,-27.0,-34.0,-25.0,-43.0,-49.0,-108.0,-45.0,-39.0,-29.0,-48.0,-58.0,-33.0,-38.0,-44.0,-64.0,REST
1.2812,-98.0,-93.0,-95.0,-79.0,-80.0,-107.0,-114.0,-51.0,-95.0,-84.0,-75.0,-61.0,-84.0,-59.0,-25.0,-103.0,-80.0,-87.0,-84.0,-98.0,-93.0,-145.0,-126.0,-88.0,-152.0,-149.0,-106.0,-186.0,-31.0,-215.0,-151.0,-133.0,-112.0,-121.0,-124.0,-123.0,-182.0,-78.0,-117.0,-85.0,-71.0,-61.0,-99.0,-18.0,-21.0,-112.0,-153.0,-45.0,-86.0,-71.0,-74.0,-71.0,-83.0,-82.0,-146.0,-65.0,-58.0,-35.0,-63.0,-48.0,-16.0,-47.0,-46.0,-74.0,REST
1.2875,-147.0,-84.0,-76.0,-64.0,-74.0,-92.0,-93.0,-25.0,-53.0,-44.0,-36.0,-43.0,-37.0,-37.0,-34.0,-40.0,-29.0,-23.0,-17.0,-30.0,-55.0,-70.0,-61.0,-37.0,-103.0,-63.0,-22.0,-65.0,26.0,-117.0,-61.0,-80.0,-18.0,-15.0,-8.0,-25.0,-69.0,-3.0,-24.0,29.0,10.0,30.0,0.0,72.0,-93.0,-16.0,-63.0,34.0,18.0,22.0,21.0,31.0,12.0,6.0,-66.0,26.0,26.0,15.0,25.0,-77.0,-56.0,21.0,32.0,-24.0,REST
1.2938,-158.0,-23.0,14.0,18.0,-4.0,-7.0,-21.0,36.0,15.0,14.0,20.0,0.0,20.0,3.0,3.0,3.0,10.0,13.0,11.0,-7.0,-37.0,-53.0,-42.0,-25.0,-103.0,-37.0,-16.0,-40.0,-39.0,-122.0,-45.0,-79.0,-32.0,-33.0,-29.0,-33.0,-65.0,4.0,-39.0,-13.0,-36.0,-35.0,-51.0,26.0,25.0,-81.0,-133.0,-18.0,-44.0,-26.0,-41.0,-42.0,-52.0,-50.0,-138.0,-49.0,-48.0,-24.0,-65.0,-16.0,5.0,-58.0,-68.0,-64.0,REST
1.3,-69.0,-67.0,-83.0,-68.0,-58.0,-78.0,-95.0,-30.0,-72.0,-57.0,-55.0,-35.0,-62.0,-50.0,21.0,-76.0,-62.0,-61.0,-54.0,-66.0,-50.0,-121.0,-107.0,-103.0,-159.0,-93.0,-68.0,-86.0,-91.0,-140.0,-77.0,-118.0,-63.0,-65.0,-55.0,-53.0,-76.0,-22.0,-41.0,-29.0,-49.0,-27.0,-42.0,22.0,-23.0,-67.0,-103.0,-7.0,-26.0,-3.0,-13.0,-8.0,-14.0,-12.0,-96.0,-19.0,-13.0,-2.0,-6.0,-70.0,-27.0,-10.0,-7.0,-68.0,REST
1.3063,-192.0,-36.0,-1.0,8.0,-4.0,-4.0,-28.0,40.0,15.0,23.0,28.0,19.0,41.0,27.0,-6.0,21.0,27.0,38.0,52.0,39.0,24.0,-22.0,-11.0,-2.0,-44.0,-1.0,25.0,11.0,27.0,-53.0,-23.0,-58.0,23.0,33.0,47.0,49.0,65.0,10.0,43.0,52.0,33.0,73.0,14.0,91.0,-46.0,4.0,-40.0,44.0,25.0,39.0,30.0,36.0,26.0,25.0,-61.0,4.0,11.0,11.0,13.0,-72.0,-41.0,6.0,3.0,-48.0,REST
1.3125,-131.0,-39.0,-10.0,5.0,8.0,-4.0,-32.0,6.0,-23.0,-15.0,-1.0,5.0,-6.0,-4.0,-6.0,-44.0,-26.0,-22.0,-17.0,-32.0,-1.0,-87.0,-80.0,-64.0,-85.0,-66.0,-39.0,-42.0,-88.0,-167.0,-103.0,-96.0,-55.0,-54.0,-35.0,-14.0,36.0,-112.0,-64.0,-46.0,-64.0,-18.0,-84.0,13.0,45.0,-91.0,-171.0,-49.0,-80.0,-50.0,-65.0,-63.0,-65.0,-54.0,-148.0,-81.0,-73.0,-31.0,-73.0,-47.0,12.0,-63.0,-71.0,-88.0,REST
1.3188,-93.0,-80.0,-85.0,-64.0,-40.0,-63.0,-70.0,-50.0,-80.0,-65.0,-44.0,-26.0,-43.0,-40.0,-23.0,-77.0,-59.0,-47.0,-33.0,-43.0,1.0,-97.0,-63.0,-43.0,-112.0,-65.0,-26.0,-56.0,-68.0,-142.0,-60.0,-72.0,-30.0,-20.0,-5.0,-4.0,1.0,-4.0,-31.0,-4.0,-15.0,41.0,-16.0,49.0,-60.0,-13.0,-115.0,0.0,-5.0,16.0,10.0,21.0,11.0,8.0,-68.0,4.0,6.0,12.0,22.0,-114.0,-46.0,17.0,24.0,-58.0,REST
1.325,-187.0,-25.0,23.0,27.0,17.0,-1.0,15.0,27.0,19.0,18.0,40.0,20.0,50.0,31.0,-3.0,18.0,23.0,39.0,47.0,34.0,31.0,2.0,18.0,22.0,-46.0,-3.0,30.0,-25.0,14.0,-82.0,-6.0,-28.0,17.0,22.0,26.0,19.0,-35.0,91.0,-4.0,26.0,5.0,31.0,-7.0,59.0,11.0,-24.0,-102.0,15.0,-3.0,16.0,6.0,5.0,-5.0,-12.0,-89.0,-18.0,-13.0,2.0,-20.0,-38.0,-6.0,-14.0,-27.0,-46.0,REST
1.3313,-70.0,-46.0,-43.0,-29.0,-14.0,-73.0,-61.0,-24.0,-53.0,-43.0,-27.0,-13.0,-38.0,-36.0,16.0,-65.0,-50.0,-45.0,-42.0,-58.0,-11.0,-82.0,-79.0,-61.0,-105.0,-77.0,-57.0,-110.0,-3.0,-169.0,-92.0,-77.0,-56.0,-61.0,-52.0,-46.0,-73.0,-32.0,-90.0,-47.0,-62.0,-22.0,-65.0,-8.0,62.0,-73.0,-137.0,-8.0,-51.0,-25.0,-35.0,-38.0,-44.0,-36.0,-124.0,-45.0,-33.0,-11.0,-41.0,-37.0,11.0,-23.0,-33.0,-54.0,REST
1.3375,-140.0,-48.0,-31.0,-13.0,-4.0,-51.0,-37.0,12.0,-18.0,-11.0,5.0,4.0,7.0,-11.0,-17.0,-11.0,0.0,10.0,20.0,6.0,19.0,-42.0,-15.0,1.0,-34.0,-7.0,15.0,-33.0,42.0,-69.0,-29.0,-25.0,20.0,28.0,40.0,35.0,31.0,25.0,3.0,62.0,37.0,69.0,31.0,60.0,-46.0,16.0,-50.0,74.0,43.0,59.0,50.0,57.0,45.0,51.0,-40.0,46.0,48.0,38.0,51.0,-76.0,-25.0,62.0,59.0,-4.0,REST
1.3438,-183.0,-11.0,32.0,45.0,35.0,2.0,16.0,58.0,30.0,19.0,37.0,22.0,39.0,-1.0,-26.0,16.0,18.0,23.0,29.0,15.0,12.0,-48.0,-33.0,-52.0,-58.0,-24.0,-3.0,-51.0,-20.0,-96.0,-48.0,-52.0,-18.0,-22.0,-11.0,-9.0,-27.0,-31.0,-26.0,-21.0,-9.0,6.0,-43.0,-11.0,51.0,-72.0,-124.0,5.0,-39.0,-11.0,-24.0,-31.0,-34.0,-32.0,-108.0,-31.0,-32.0,6.0,-42.0,-29.0,42.0,-10.0,-38.0,-36.0,REST
1.35,-89.0,-67.0,-86.0,-64.0,-43.0,-97.0,-89.0,-24.0,-77.0,-72.0,-59.0,-37.0,-62.0,-73.0,-55.0,-74.0,-71.0,-65.0,-54.0,-64.0,-33.0,-133.0,-115.0,-101.0,-144.0,-84.0,-67.0,-105.0,-59.0,-152.0,-116.0,-106.0,-66.0,-71.0,-56.0,-46.0,-72.0,-56.0,-45.0,-44.0,-37.0,-20.0,-47.0,-21.0,11.0,-70.0,-95.0,3.0,-29.0,5.0,-6.0,-4.0,-12.0,-18.0,-84.0,-7.0,-1.0,22.0,5.0,-83.0,8.0,31.0,18.0,-31.0,REST
1.3563,-182.0,-36.0,-12.0,5.0,5.0,-23.0,-10.0,47.0,5.0,4.0,18.0,7.0,37.0,12.0,-74.0,23.0,15.0,30.0,45.0,32.0,0.0,-25.0,-6.0,12.0,-53.0,1.0,21.0,-11.0,39.0,-58.0,-26.0,-41.0,17.0,24.0,34.0,42.0,20.0,16.0,19.0,53.0,30.0,72.0,34.0,57.0,-37.0,2.0,-27.0,41.0,24.0,44.0,31.0,32.0,18.0,9.0,-51.0,16.0,15.0,24.0,14.0,-78.0,-13.0,33.0,23.0,1.0,REST
1.3625,-126.0,-28.0,-13.0,6.0,6.0,-42.0,-31.0,26.0,-25.0,-28.0,-13.0,-14.0,-26.0,-44.0,-54.0,-36.0,-35.0,-34.0,-33.0,-49.0,-50.0,-70.0,-79.0,-89.0,-125.0,-67.0,-42.0,-52.0,-100.0,-137.0,-72.0,-78.0,-56.0,-60.0,-51.0,-25.0,-12.0,-117.0,-76.0,-40.0,-71.0,-11.0,-67.0,-21.0,15.0,-107.0,-133.0,-50.0,-81.0,-53.0,-71.0,-81.0,-82.0,-83.0,-120.0,-81.0,-78.0,-36.0,-80.0,-43.0,22.0,-53.0,-66.0,-40.0,REST
1.3688,-97.0,-70.0,-83.0,-60.0,-50.0,-107.0,-98.0,-7.0,-73.0,-67.0,-55.0,-43.0,-70.0,-89.0,-59.0,-70.0,-60.0,-62.0,-56.0,-67.0,-49.0,-72.0,-81.0,-106.0,-115.0,-72.0,-34.0,-38.0,-69.0,-112.0,-56.0,-73.0,-35.0,-31.0,-20.0,-13.0,5.0,-53.0,-21.0,9.0,-41.0,29.0,-16.0,39.0,-115.0,-51.0,-67.0,-4.0,-7.0,7.0,1.0,1.0,-3.0,-6.0,-35.0,5.0,2.0,4.0,17.0,-112.0,-35.0,27.0,33.0,-15.0,REST
1.375,-192.0,-18.0,19.0,32.0,2.0,-35.0,-14.0,67.0,24.0,18.0,32.0,6.0,30.0,-7.0,-76.0,24.0,29.0,24.0,29.0,20.0,-8.0,-4.0,-5.0,-9.0,-65.0,-5.0,22.0,-40.0,34.0,-76.0,-2.0,-40.0,-1.0,5.0,5.0,-7.0,-17.0,40.0,-27.0,11.0,15.0,40.0,-4.0,43.0,-32.0,-46.0,-61.0,-14.0,-12.0,-1.0,-14.0,-22.0,-23.0,-26.0,-73.0,-15.0,-27.0,-12.0,-34.0,-71.0,-8.0,-16.0,-30.0,-22.0,REST
1.3813,-83.0,-54.0,-62.0,-40.0,-40.0,-108.0,-80.0,-7.0,-61.0,-54.0,-45.0,-38.0,-65.0,-79.0,-80.0,-71.0,-56.0,-69.0,-68.0,-77.0,-42.0,-90.0,-96.0,-72.0,-118.0,-91.0,-69.0,-140.0,-51.0,-148.0,-120.0,-114.0,-89.0,-87.0,-84.0,-91.0,-103.0,-59.0,-91.0,-80.0,-34.0,-17.0,-80.0,-37.0,36.0,-100.0,-123.0,-67.0,-67.0,-45.0,-58.0,-64.0,-61.0,-74.0,-107.0,-43.0,-56.0,-27.0,-56.0,-77.0,1.0,-39.0,-46.0,-54.0,REST
1.3875,-129.0,-59.0,-54.0,-36.0,-38.0,-85.0,-66.0,25.0,-26.0,-19.0,-12.0,-15.0,-16.0,-53.0,-85.0,-15.0,-4.0,-4.0,5.0,-12.0,-1.0,-44.0,-23.0,-1.0,-45.0,-18.0,1.0,-41.0,17.0,-58.0,-43.0,-63.0,-7.0,8.0,14.0,2.0,11.0,-40.0,18.0,22.0,42.0,72.0,27.0,48.0,-48.0,-2.0,-26.0,17.0,37.0,47.0,42.0,46.0,39.0,0.0,-13.0,44.0,29.0,22.0,45.0,-96.0,-39.0,32.0,47.0,-7.0,REST
1.3938,-155.0,-14.0,21.0,34.0,13.0,-6.0,-13.0,61.0,29.0,26.0,39.0,25.0,33.0,-27.0,-64.0,19.0,32.0,33.0,34.0,9.0,12.0,-74.0,-34.0,-64.0,-80.0,-13.0,2.0,-25.0,-54.0,-98.0,-25.0,-63.0,-26.0,-22.0,-14.0,-15.0,-11.0,-74.0,-21.0,-36.0,-10.0,3.0,-22.0,4.0,49.0,-74.0,-109.0,-40.0,-31.0,-13.0,-20.0,-29.0,-34.0,-59.0,-86.0,-38.0,-42.0,-12.0,-41.0,-23.0,35.0,-36.0,-40.0,-22.0,REST
1.4,-47.0,-58.0,-81.0,-56.0,-52.0,-85.0,-98.0,-24.0,-66.0,-51.0,-37.0,-18.0,-53.0,-78.0,-58.0,-64.0,-42.0,-45.0,-42.0,-61.0,-12.0,-109.0,-106.0,-142.0,-183.0,-82.0,-56.0,-74.0,-92.0,-143.0,-69.0,-100.0,-71.0,-65.0,-48.0,-49.0,-68.0,-67.0,-42.0,-58.0,-16.0,-4.0,-43.0,-3.0,-16.0,-68.0,-110.0,-34.0,-15.0,-1.0,-1.0,-2.0,-8.0,-27.0,-55.0,1.0,-1.0,12.0,10.0,-81.0,10.0,8.0,19.0,-14.0,REST
1.4062,-155.0,-25.0,-2.0,16.0,-6.0,-13.0,-12.0,51.0,21.0,29.0,42.0,22.0,46.0,-1.0,-62.0,35.0,50.0,51.0,58.0,42.0,32.0,12.0,10.0,-18.0,-48.0,5.0,30.0,18.0,54.0,-24.0,-2.0,-33.0,15.0,32.0,43.0,34.0,35.0,-22.0,16.0,31.0,67.0,91.0,33.0,74.0,-32.0,5.0,-49.0,31.0,47.0,49.0,48.0,51.0,40.0,12.0,-10.0,40.0,38.0,31.0,38.0,-83.0,-9.0,29.0,34.0,-2.0,REST
1.4125,-84.0,-15.0,2.0,19.0,7.0,-24.0,-18.0,25.0,-1.0,2.0,16.0,12.0,-1.0,-25.0,-37.0,-13.0,4.0,-1.0,-1.0,-18.0,-1.0,-70.0,-60.0,-42.0,-65.0,-58.0,-37.0,-64.0,-78.0,-88.0,-59.0,-69.0,-52.0,-51.0,-50.0,-51.0,-37.0,-120.0,-109.0,-52.0,-32.0,-20.0,-68.0,-14.0,66.0,-100.0,-148.0,-49.0,-53.0,-33.0,-39.0,-43.0,-48.0,-71.0,-91.0,-51.0,-44.0,-13.0,-47.0,-40.0,34.0,-37.0,-48.0,-53.0,REST
1.4188,-32.0,-49.0,-63.0,-45.0,-41.0,-97.0,-89.0,-17.0,-48.0,-40.0,-26.0,-14.0,-45.0,-54.0,-36.0,-42.0,-24.0,-24.0,-17.0,-33.0,-11.0,-63.0,-62.0,-43.0,-52.0,-50.0,-31.0,-91.0,-44.0,-53.0,-39.0,-54.0,-23.0,-15.0,-17.0,-36.0,-35.0,-31.0,-11.0,-3.0,27.0,26.0,-15.0,27.0,-36.0,-51.0,-65.0,1.0,21.0,32.0,31.0,34.0,22.0,-14.0,-36.0,26.0,33.0,27.0,35.0,-120.0,-30.0,33.0,32.0,-37.0,REST
1.425,-167.0,-3.0,42.0,46.0,14.0,-22.0,-25.0,69.0,49.0,40.0,56.0,32.0,40.0,0.0,-30.0,47.0,60.0,59.0,61.0,41.0,6.0,17.0,13.0,-22.0,-14.0,26.0,30.0,-30.0,51.0,51.0,-18.0,-19.0,21.0,29.0,24.0,6.0,9.0,22.0,21.0,19.0,44.0,9.0,5.0,34.0,7.0,-70.0,-69.0,-6.0,22.0,32.0,23.0,17.0,4.0,-31.0,-76.0,11.0,15.0,29.0,-5.0,-89.0,20.0,2.0,-17.0,-18.0,REST
1.4313,-59.0,-34.0,-30.0,-11.0,-14.0,-70.0,-75.0,-5.0,-31.0,-23.0,-4.0,10.0,-30.0,-48.0,-29.0,-40.0,-8.0,-17.0,-15.0,-32.0,7.0,-101.0,-86.0,-97.0,-124.0,-68.0,-49.0,-114.0,-31.0,-67.0,-93.0,-78.0,-46.0,-52.0,-51.0,-56.0,-60.0,-49.0,-88.0,-56.0,-44.0,-45.0,-67.0,-47.0,55.0,-116.0,-128.0,-54.0,-22.0,-3.0,-6.0,-13.0,-23.0,-54.0,-109.0,-12.0,-3.0,27.0,-12.0,-83.0,42.0,-7.0,-15.0,-27.0,REST
1.4375,-69.0,-23.0,-11.0,8.0,5.0,-43.0,-51.0,29.0,4.0,13.0,31.0,30.0,15.0,-31.0,-46.0,15.0,38.0,39.0,44.0,26.0,42.0,-36.0,-1.0,4.0,-32.0,14.0,29.0,-25.0,50.0,16.0,13.0,-13.0,41.0,46.0,48.0,26.0,23.0,32.0,32.0,50.0,43.0,97.0,30.0,66.0,-11.0,-7.0,-30.0,13.0,61.0,64.0,68.0,72.0,50.0,20.0,-43.0,54.0,60.0,54.0,61.0,-127.0,-27.0,43.0,49.0,-8.0,REST
1.4438,-87.0,29.0,69.0,78.0,56.0,10.0,-13.0,86.0,58.0,49.0,64.0,46.0,42.0,-24.0,-49.0,40.0,53.0,50.0,45.0,24.0,29.0,13.0,39.0,29.0,10.0,60.0,44.0,-15.0,6.0,57.0,22.0,-2.0,32.0,26.0,24.0,6.0,25.0,-45.0,-7.0,-32.0,11.0,20.0,-19.0,23.0,97.0,-105.0,-89.0,-45.0,-21.0,-3.0,-11.0,-18.0,-32.0,-50.0,-130.0,-34.0,-24.0,6.0,-36.0,-75.0,25.0,-45.0,-54.0,-50.0,REST
1.45,26.0,-17.0,-27.0,-13.0,-6.0,-72.0,-90.0,10.0,-35.0,-32.0,-15.0,1.0,-42.0,-80.0,-50.0,-45.0,-22.0,-30.0,-30.0,-43.0,8.0,-67.0,-34.0,-92.0,-67.0,19.0,8.0,-41.0,-79.0,2.0,-3.0,-27.0,5.0,-2.0,-3.0,-16.0,18.0,-78.0,-34.0,-39.0,6.0,20.0,-28.0,23.0,26.0,-75.0,-42.0,-25.0,4.0,23.0,15.0,14.0,7.0,-13.0,-80.0,4.0,22.0,28.0,26.0,-124.0,5.0,9.0,14.0,-33.0,REST
1.4563,-86.0,23.0,60.0,63.0,42.0,8.0,-1.0,93.0,61.0,55.0,71.0,52.0,74.0,27.0,-39.0,64.0,79.0,76.0,82.0,68.0,70.0,36.0,71.0,29.0,20.0,101.0,101.0,81.0,41.0,64.0,132.0,53.0,96.0,96.0,91.0,77.0,104.0,66.0,65.0,72.0,86.0,80.0,49.0,88.0,12.0,7.0,29.0,35.0,71.0,77.0,68.0,64.0,54.0,26.0,-30.0,42.0,60.0,44.0,48.0,-118.0,-3.0,35.0,30.0,0.0,REST
1.4625,-27.0,36.0,60.0,65.0,46.0,13.0,1.0,82.0,41.0,37.0,41.0,38.0,30.0,-12.0,-10.0,17.0,33.0,20.0,14.0,-5.0,13.0,17.0,27.0,29.0,25.0,37.0,32.0,-8.0,-47.0,10.0,69.0,6.0,17.0,4.0,5.0,6.0,63.0,-62.0,-22.0,-32.0,-28.0,-58.0,-59.0,-1.0,133.0,-124.0,-109.0,-54.0,-34.0,-12.0,-25.0,-41.0,-47.0,-62.0,-115.0,-41.0,-27.0,-2.0,-50.0,-80.0,44.0,-40.0,-59.0,-47.0,REST
1.4688,12.0,-13.0,-22.0,-10.0,-16.0,-55.0,-56.0,26.0,-21.0,-15.0,-16.0,-2.0,-33.0,-66.0,-21.0,-23.0,-7.0,-15.0,-13.0,-32.0,-20.0,32.0,36.0,25.0,46.0,32.0,30.0,-28.0,-10.0,28.0,42.0,-10.0,27.0,23.0,27.0,5.0,36.0,-28.0,9.0,-6.0,4.0,43.0,9.0,71.0,27.0,-56.0,-46.0,2.0,30.0,48.0,41.0,38.0,24.0,1.0,-39.0,36.0,46.0,37.0,50.0,-126.0,-14.0,40.0,41.0,-26.0,REST
1.475,-79.0,29.0,76.0,74.0,31.0,6.0,3.0,95.0,66.0,53.0,60.0,41.0,55.0,-3.0,-25.0,60.0,67.0,65.0,69.0,49.0,23.0,82.0,127.0,126.0,68.0,90.0,82.0,-1.0,185.0,51.0,83.0,23.0,61.0,59.0,47.0,12.0,-16.0,93.0,16.0,12.0,12.0,66.0,27.0,83.0,73.0,-27.0,-45.0,7.0,14.0,32.0,25.0,20.0,7.0,-24.0,-52.0,3.0,13.0,24.0,8.0,-73.0,20.0,-5.0,-13.0,-33.0,REST
1.4813,25.0,-16.0,-15.0,-5.0,-11.0,-71.0,-52.0,11.0,-34.0,-34.0,-21.0,-3.0,-33.0,-52.0,7.0,-46.0,-32.0,-34.0,-34.0,-44.0,-12.0,-6.0,2.0,39.0,-41.0,-15.0,-25.0,-117.0,117.0,3.0,-23.0,-63.0,-41.0,-48.0,-56.0,-73.0,-89.0,31.0,-88.0,-41.0,-27.0,-37.0,-69.0,-8.0,134.0,-93.0,-97.0,-56.0,-55.0,-27.0,-29.0,-38.0,-42.0,-64.0,-99.0,-45.0,-30.0,1.0,-27.0,-99.0,24.0,-32.0,-34.0,-62.0,REST
1.4875,-62.0,-41.0,-28.0,-16.0,-23.0,-68.0,-41.0,22.0,-23.0,-18.0,-6.0,-3.0,-1.0,-18.0,-20.0,-9.0,-2.0,6.0,12.0,2.0,-3.0,55.0,46.0,75.0,27.0,40.0,31.0,-23.0,100.0,82.0,40.0,-25.0,26.0,31.0,31.0,11.0,35.0,58.0,-33.0,58.0,59.0,50.0,16.0,70.0,27.0,-5.0,-9.0,3.0,32.0,49.0,47.0,42.0,33.0,8.0,-42.0,20.0,42.0,34.0,51.0,-157.0,-37.0,39.0,44.0,-24.0,REST
1.4938,-102.0,-2.0,40.0,48.0,15.0,-13.0,6.0,68.0,28.0,21.0,30.0,15.0,30.0,1.0,-35.0,17.0,24.0,23.0,21.0,5.0,-31.0,23.0,37.0,53.0,32.0,27.0,21.0,-16.0,13.0,24.0,25.0,-27.0,-1.0,-5.0,-6.0,-7.0,25.0,-30.0,-32.0,-20.0,-14.0,-13.0,-46.0,24.0,87.0,-76.0,-83.0,-56.0,-40.0,-17.0,-31.0,-44.0,-47.0,-67.0,-119.0,-63.0,-35.0,-4.0,-45.0,-87.0,21.0,-37.0,-53.0,-49.0,REST
1.5,23.0,-50.0,-67.0,-50.0,-54.0,-108.0,-89.0,-16.0,-65.0,-61.0,-53.0,-36.0,-67.0,-77.0,-11.0,-70.0,-53.0,-62.0,-60.0,-75.0,-59.0,-62.0,-48.0,-63.0,-48.0,-46.0,-39.0,-43.0,-62.0,-35.0,-16.0,-65.0,-43.0,-46.0,-37.0,-32.0,12.0,-107.0,-20.0,-51.0,-22.0,-37.0,-51.0,-7.0,41.0,-81.0,-63.0,-44.0,-24.0,-6.0,-15.0,-15.0,-18.0,-43.0,-95.0,-22.0,7.0,21.0,6.0,-118.0,4.0,6.0,6.0,-41.0,REST
1.5063,-95.0,-18.0,9.0,22.0,-7.0,-33.0,-11.0,44.0,20.0,16.0,25.0,16.0,43.0,9.0,-5.0,31.0,37.0,38.0,45.0,29.0,2.0,28.0,52.0,28.0,13.0,61.0,50.0,44.0,39.0,39.0,65.0,-4.0,41.0,44.0,48.0,39.0,81.0,1.0,44.0,17.0,60.0,55.0,29.0,44.0,18.0,-14.0,16.0,24.0,39.0,44.0,33.0,34.0,27.0,2.0,-61.0,28.0,42.0,33.0,28.0,-113.0,-4.0,24.0,23.0,-15.0,REST
1.5125,-51.0,-18.0,-2.0,10.0,-13.0,-45.0,-27.0,34.0,-7.0,-16.0,-14.0,-9.0,-22.0,-55.0,-29.0,-22.0,-12.0,-22.0,-25.0,-44.0,-44.0,-35.0,-13.0,-4.0,-20.0,-5.0,-30.0,-102.0,4.0,-43.0,-40.0,-63.0,-47.0,-57.0,-65.0,-67.0,-49.0,-37.0,-36.0,-68.0,-42.0,-35.0,-74.0,-35.0,95.0,-111.0,-93.0,-51.0,-58.0,-47.0,-60.0,-67.0,-65.0,-81.0,-146.0,-52.0,-43.0,-17.0,-67.0,-65.0,38.0,-52.0,-61.0,-61.0,REST
1.5188,11.0,-56.0,-73.0,-56.0,-61.0,-102.0,-80.0,6.0,-54.0,-52.0,-52.0,-35.0,-64.0,-73.0,-55.0,-48.0,-38.0,-40.0,-38.0,-50.0,-37.0,-35.0,-11.0,10.0,-12.0,-10.0,-18.0,-91.0,4.0,-5.0,-34.0,-57.0,-17.0,-15.0,-15.0,-26.0,2.0,-1.0,18.0,18.0,-2.0,14.0,-5.0,1.0,-29.0,-39.0,-21.0,10.0,25.0,31.0,22.0,27.0,20.0,-7.0,-67.0,36.0,43.0,30.0,33.0,-110.0,-15.0,30.0,39.0,-35.0,REST
1.525,-74.0,5.0,42.0,57.0,24.0,7.0,30.0,91.0,52.0,44.0,52.0,29.0,53.0,20.0,-41.0,52.0,54.0,57.0,55.0,41.0,8.0,53.0,68.0,48.0,66.0,40.0,56.0,22.0,34.0,42.0,29.0,-18.0,35.0,39.0,40.0,34.0,86.0,25.0,41.0,19.0,10.0,29.0,6.0,10.0,-7.0,-41.0,-19.0,8.0,20.0,31.0,13.0,10.0,2.0,-18.0,-83.0,10.0,12.0,15.0,-8.0,-65.0,23.0,-6.0,-10.0,-23.0,REST
1.5312,36.0,-23.0,-30.0,-12.0,-12.0,-58.0,-45.0,12.0,-32.0,-29.0,-21.0,-13.0,-43.0,-67.0,-34.0,-48.0,-31.0,-39.0,-45.0,-62.0,-25.0,-68.0,-52.0,-77.0,-59.0,-48.0,-33.0,-66.0,-36.0,-53.0,-47.0,-87.0,-47.0,-58.0,-61.0,-53.0,-17.0,-93.0,-54.0,-73.0,-77.0,-39.0,-77.0,-60.0,43.0,-93.0,-95.0,-67.0,-50.0,-26.0,-43.0,-45.0,-51.0,-57.0,-119.0,-45.0,-37.0,-9.0,-40.0,-102.0,20.0,-42.0,-45.0,-73.0,REST
1.5375,-34.0,-36.0,-30.0,-16.0,-20.0,-54.0,-59.0,25.0,-14.0,-7.0,4.0,-2.0,-5.0,-29.0,-48.0,-6.0,10.0,8.0,12.0,-5.0,14.0,-10.0,11.0,22.0,-9.0,29.0,26.0,-25.0,79.0,14.0,31.0,-42.0,31.0,30.0,22.0,18.0,57.0,-22.0,30.0,55.0,20.0,60.0,13.0,22.0,-13.0,14.0,10.0,11.0,44.0,56.0,46.0,56.0,41.0,30.0,-32.0,22.0,41.0,35.0,51.0,-149.0,-33.0,30.0,39.0,-32.0,REST
1.5438,-87.0,5.0,45.0,59.0,39.0,18.0,16.0,78.0,37.0,35.0,52.0,32.0,50.0,28.0,-17.0,29.0,43.0,37.0,37.0,19.0,15.0,14.0,17.0,21.0,-5.0,26.0,22.0,-17.0,-1.0,-38.0,26.0,-48.0,16.0,7.0,4.0,16.0,87.0,-110.0,-13.0,0.0,-16.0,2.0,-40.0,3.0,83.0,-62.0,-53.0,-32.0,-27.0,-5.0,-18.0,-17.0,-28.0,-33.0,-102.0,-58.0,-31.0,-1.0,-40.0,-74.0,35.0,-40.0,-43.0,-39.0,REST
1.55,16.0,-42.0,-54.0,-27.0,-9.0,-51.0,-40.0,-8.0,-60.0,-46.0,-26.0,-11.0,-42.0,-40.0,-13.0,-61.0,-36.0,-42.0,-39.0,-58.0,-26.0,-83.0,-71.0,-80.0,-81.0,-37.0,-31.0,-51.0,-70.0,-82.0,-28.0,-87.0,-24.0,-32.0,-29.0,-14.0,31.0,-134.0,-53.0,-32.0,-40.0,17.0,-49.0,10.0,16.0,-64.0,-58.0,-36.0,-17.0,7.0,-1.0,6.0,-4.0,-11.0,-82.0,-26.0,-1.0,21.0,8.0,-112.0,9.0,-4.0,14.0,-34.0,REST
1.5563,-95.0,-7.0,27.0,45.0,34.0,1.0,-12.0,52.0,31.0,33.0,56.0,36.0,54.0,23.0,-63.0,37.0,55.0,60.0,68.0,43.0,24.0,10.0,46.0,55.0,55.0,54.0,58.0,25.0,99.0,37.0,58.0,-21.0,64.0,62.0,53.0,36.0,28.0,27.0,50.0,60.0,20.0,97.0,22.0,69.0,-43.0,14.0,1.0,20.0,52.0,69.0,56.0,63.0,49.0,40.0,-43.0,21.0,43.0,51.0,42.0,-87.0,1.0,21.0,35.0,-12.0,REST
1.5625,-26.0,11.0,33.0,48.0,36.0,-2.0,-5.0,36.0,17.0,21.0,41.0,33.0,22.0,8.0,-48.0,3.0,24.0,18.0,17.0,-7.0,-3.0,-25.0,-1.0,-2.0,8.0,-16.0,3.0,-35.0,12.0,-39.0,-5.0,-67.0,-6.0,-21.0,-24.0,-32.0,-17.0,-78.0,-29.0,-28.0,-52.0,-3.0,-65.0,-31.0,58.0,-79.0,-96.0,-54.0,-32.0,-8.0,-20.0,-24.0,-32.0,-35.0,-118.0,-57.0,-26.0,18.0,-33.0,-14.0,59.0,-34.0,-34.0,-44.0,REST
1.5688,-3.0,-33.0,-41.0,-19.0,-13.0,-55.0,-34.0,-10.0,-36.0,-17.0,-2.0,4.0,-21.0,-12.0,-27.0,-24.0,-2.0,-4.0,1.0,-17.0,-1.0,-53.0,-28.0,-6.0,-14.0,-22.0,6.0,-45.0,51.0,-63.0,4.0,-58.0,10.0,4.0,5.0,-12.0,30.0,-77.0,0.0,16.0,25.0,44.0,-11.0,20.0,-33.0,-17.0,-7.0,-2.0,41.0,57.0,55.0,60.0,47.0,30.0,-44.0,18.0,54.0,61.0,63.0,-64.0,4.0,54.0,65.0,-13.0,REST
1.575,-117.0,8.0,55.0,66.0,34.0,13.0,31.0,69.0,55.0,59.0,73.0,45.0,65.0,30.0,-34.0,63.0,77.0,76.0,79.0,60.0,46.0,12.0,36.0,47.0,37.0,52.0,56.0,-3.0,87.0,-20.0,42.0,-12.0,50.0,41.0,37.0,23.0,51.0,-41.0,12.0,27.0,26.0,48.0,-17.0,21.0,-37.0,-15.0,-11.0,-11.0,27.0,51.0,43.0,42.0,28.0,14.0,-70.0,-14.0,25.0,54.0,20.0,-29.0,35.0,10.0,13.0,-21.0,REST
1.5813,35.0,-23.0,-23.0,-3.0,-7.0,-55.0,-46.0,4.0,-31.0,-21.0,-5.0,1.0,-32.0,-54.0,-41.0,-35.0,-11.0,-19.0,-20.0,-41.0,22.0,-50.0,-61.0,-79.0,-57.0,-48.0,-26.0,-63.0,-60.0,-95.0,-36.0,-73.0,-32.0,-49.0,-50.0,-41.0,-24.0,-105.0,-65.0,-66.0,-77.0,-17.0,-84.0,-54.0,-22.0,-78.0,-87.0,-72.0,-37.0,1.0,-6.0,-8.0,-19.0,-28.0,-109.0,-53.0,-9.0,46.0,-2.0,-25.0,49.0,-13.0,1.0,-48.0,REST
1.5875,1.0,-31.0,-20.0,3.0,-1.0,-46.0,-36.0,24.0,-8.0,5.0,24.0,14.0,8.0,-8.0,-40.0,14.0,35.0,33.0,43.0,22.0,54.0,-2.0,6.0,-2.0,3.0,2.0,46.0,17.0,15.0,-20.0,48.0,-24.0,46.0,43.0,42.0,39.0,84.0,-76.0,35.0,33.0,32.0,65.0,14.0,44.0,-94.0,26.0,40.0,19.0,71.0,83.0,87.0,92.0,79.0,63.0,-4.0,41.0,84.0,94.0,100.0,-31.0,7.0,73.0,95.0,8.0,REST
1.5938,-66.0,11.0,60.0,78.0,53.0,21.0,13.0,74.0,49.0,54.0,74.0,49.0,56.0,27.0,-5.0,52.0,71.0,62.0,66.0,41.0,49.0,-18.0,13.0,22.0,10.0,17.0,46.0,-17.0,14.0,-21.0,41.0,-21.0,32.0,20.0,15.0,18.0,56.0,-127.0,4.0,-12.0,21.0,-7.0,-49.0,-11.0,16.0,-46.0,2.0,-24.0,10.0,23.0,21.0,13.0,4.0,-8.0,-81.0,-27.0,20.0,47.0,6.0,41.0,70.0,4.0,-7.0,-9.0,REST
1.6,42.0,-26.0,-34.0,-9.0,-5.0,-71.0,-77.0,22.0,-36.0,-20.0,-7.0,7.0,-35.0,-42.0,8.0,-32.0,-8.0,-21.0,-15.0,-36.0,-5.0,-67.0,-48.0,-50.0,-24.0,-26.0,0.0,-42.0,-23.0,-48.0,-20.0,-51.0,2.0,-14.0,-13.0,-13.0,-11.0,-97.0,-14.0,-13.0,3.0,-13.0,-52.0,-28.0,-59.0,-52.0,-12.0,-36.0,12.0,32.0,31.0,29.0,20.0,2.0,-65.0,-1.0,41.0,55.0,43.0,-21.0,31.0,34.0,33.0,-21.0,REST
1.6063,-75.0,9.0,46.0,61.0,41.0,-15.0,-8.0,100.0,54.0,56.0,69.0,55.0,69.0,40.0,1.0,65.0,78.0,76.0,86.0,70.0,52.0,46.0,65.0,64.0,114.0,68.0,89.0,38.0,111.0,37.0,59.0,13.0,86.0,78.0,76.0,48.0,57.0,-6.0,70.0,69.0,74.0,71.0,39.0,55.0,-84.0,19.0,35.0,3.0,71.0,81.0,76.0,77.0,68.0,54.0,-17.0,32.0,66.0,68.0,71.0,-18.0,2.0,50.0,52.0,8.0,REST
1.6125,-13.0,18.0,42.0,49.0,33.0,-23.0,-30.0,71.0,32.0,25.0,41.0,36.0,25.0,7.0,2.0,16.0,30.0,21.0,22.0,3.0,31.0,-16.0,-4.0,22.0,13.0,1.0,11.0,-105.0,42.0,-58.0,15.0,-32.0,1.0,-20.0,-28.0,-53.0,-36.0,-120.0,23.0,-41.0,-34.0,-18.0,-61.0,-16.0,42.0,-61.0,-67.0,-79.0,-31.0,-4.0,-16.0,-26.0,-26.0,-24.0,-90.0,-58.0,-21.0,13.0,-22.0,29.0,42.0,-27.0,-32.0,-29.0,REST
1.6188,17.0,-26.0,-38.0,-28.0,-21.0,-83.0,-98.0,23.0,-25.0,-21.0,-5.0,3.0,-23.0,-22.0,-27.0,-20.0,-3.0,-8.0,1.0,-18.0,32.0,-52.0,-20.0,6.0,-23.0,4.0,21.0,-63.0,18.0,-41.0,35.0,-28.0,22.0,13.0,17.0,4.0,55.0,-111.0,69.0,-3.0,-1.0,30.0,-11.0,29.0,-80.0,6.0,12.0,-16.0,43.0,60.0,55.0,53.0,51.0,45.0,-2.0,25.0,55.0,51.0,72.0,-28.0,-15.0,54.0,67.0,2.0,REST
1.625,-74.0,26.0,68.0,68.0,57.0,10.0,-2.0,109.0,73.0,67.0,81.0,55.0,79.0,62.0,-41.0,72.0,79.0,78.0,82.0,65.0,63.0,9.0,54.0,22.0,65.0,77.0,90.0,44.0,24.0,23.0,64.0,-3.0,70.0,61.0,65.0,54.0,106.0,-76.0,66.0,27.0,26.0,49.0,11.0,15.0,-53.0,0.0,13.0,-2.0,39.0,51.0,39.0,30.0,29.0,18.0,-33.0,-3.0,22.0,35.0,22.0,15.0,15.0,14.0,11.0,-8.0,REST
1.6313,77.0,1.0,-8.0,-2.0,17.0,-50.0,-61.0,39.0,-12.0,-7.0,-2.0,7.0,-21.0,-15.0,-14.0,-24.0,-12.0,-23.0,-25.0,-39.0,13.0,-64.0,-37.0,-54.0,-16.0,-25.0,-1.0,-53.0,-54.0,-104.0,-45.0,-61.0,-16.0,-34.0,-34.0,-34.0,-15.0,-107.0,-6.0,-54.0,-28.0,-31.0,-60.0,-55.0,-18.0,-74.0,-60.0,-54.0,-23.0,-4.0,-19.0,-26.0,-26.0,-34.0,-86.0,-42.0,-16.0,14.0,-14.0,-8.0,30.0,-11.0,-17.0,-40.0,REST
1.6375,37.0,-6.0,-5.0,-4.0,8.0,-48.0,-68.0,48.0,7.0,13.0,17.0,14.0,11.0,13.0,-22.0,18.0,25.0,22.0,26.0,16.0,35.0,14.0,40.0,60.0,40.0,30.0,60.0,-2.0,93.0,-10.0,26.0,1.0,49.0,47.0,38.0,25.0,40.0,-7.0,95.0,35.0,59.0,51.0,37.0,53.0,-155.0,19.0,24.0,13.0,70.0,72.0,61.0,67.0,54.0,42.0,-14.0,41.0,63.0,50.0,70.0,-65.0,-21.0,64.0,65.0,1.0,REST
1.6438,-32.0,25.0,62.0,54.0,40.0,-6.0,-51.0,83.0,56.0,48.0,55.0,35.0,46.0,34.0,-15.0,50.0,52.0,45.0,44.0,30.0,15.0,30.0,48.0,52.0,30.0,35.0,54.0,0.0,32.0,14.0,24.0,-4.0,21.0,10.0,-3.0,-12.0,-6.0,-60.0,43.0,-2.0,7.0,-4.0,-37.0,-12.0,-54.0,-47.0,-48.0,-42.0,-4.0,6.0,-8.0,-13.0,-22.0,-34.0,-88.0,-45.0,-14.0,7.0,-24.0,20.0,36.0,-20.0,-34.0,-37.0,REST
1.65,66.0,-26.0,-44.0,-42.0,-27.0,-89.0,-133.0,-3.0,-40.0,-33.0,-29.0,-14.0,-49.0,-42.0,3.0,-42.0,-31.0,-40.0,-37.0,-51.0,-17.0,-67.0,-43.0,-40.0,-29.0,-29.0,-6.0,-34.0,-31.0,-46.0,-30.0,-42.0,-26.0,-32.0,-36.0,-37.0,-7.0,-128.0,-5.0,-22.0,-26.0,1.0,-55.0,-35.0,-90.0,-47.0,-54.0,-37.0,-5.0,5.0,3.0,2.0,-3.0,-29.0,-66.0,-34.0,7.0,15.0,14.0,-3.0,-4.0,4.0,5.0,-62.0,REST
1.6562,-54.0,2.0,27.0,25.0,21.0,-22.0,-48.0,53.0,40.0,39.0,44.0,26.0,47.0,31.0,-8.0,45.0,50.0,51.0,56.0,43.0,38.0,11.0,46.0,46.0,40.0,46.0,69.0,23.0,111.0,17.0,56.0,18.0,50.0,56.0,46.0,38.0,89.0,-30.0,81.0,56.0,51.0,82.0,32.0,47.0,-116.0,19.0,17.0,32.0,54.0,51.0,44.0,42.0,39.0,16.0,-25.0,3.0,48.0,27.0,35.0,8.0,-26.0,25.0,22.0,-30.0,REST
1.6625,-1.0,5.0,21.0,18.0,18.0,-40.0,-59.0,35.0,13.0,4.0,10.0,1.0,-7.0,5.0,-4.0,-8.0,1.0,-9.0,-15.0,-26.0,-16.0,-43.0,-33.0,-30.0,-48.0,-21.0,-9.0,-86.0,12.0,-68.0,-11.0,-38.0,-33.0,-44.0,-58.0,-56.0,-36.0,-78.0,-13.0,-43.0,-13.0,-31.0,-65.0,-30.0,8.0,-86.0,-72.0,-48.0,-47.0,-39.0,-55.0,-65.0,-59.0,-62.0,-115.0,-73.0,-31.0,-17.0,-56.0,49.0,24.0,-49.0,-59.0,-50.0,REST
1.6688,65.0,-44.0,-62.0,-62.0,-43.0,-108.0,-128.0,-12.0,-52.0,-51.0,-46.0,-39.0,-62.0,-34.0,-32.0,-49.0,-41.0,-48.0,-43.0,-52.0,-43.0,-45.0,-35.0,-39.0,-34.0,-14.0,-7.0,-65.0,-18.0,-52.0,-4.0,-48.0,-16.0,-18.0,-24.0,-31.0,-20.0,-80.0,39.0,-2.0,36.0,7.0,-2.0,15.0,-82.0,-16.0,-22.0,-13.0,16.0,18.0,7.0,11.0,11.0,13.0,-55.0,-2.0,35.0,21.0,35.0,-14.0,-36.0,26.0,37.0,-20.0,REST
1.675,-43.0,-1.0,41.0,34.0,16.0,-14.0,-23.0,70.0,43.0,24.0,32.0,6.0,34.0,25.0,-50.0,39.0,36.0,32.0,33.0,23.0,-20.0,24.0,33.0,-16.0,54.0,52.0,54.0,16.0,-15.0,15.0,23.0,-22.0,24.0,25.0,17.0,13.0,49.0,-108.0,79.0,21.0,51.0,41.0,18.0,25.0,-38.0,-17.0,-32.0,-15.0,9.0,5.0,-10.0,-13.0,-14.0,-6.0,-86.0,-31.0,1.0,-2.0,-18.0,15.0,-8.0,-17.0,-21.0,-29.0,REST
1.6812,64.0,-34.0,-37.0,-32.0,-32.0,-77.0,-97.0,-4.0,-40.0,-50.0,-45.0,-37.0,-61.0,-51.0,-30.0,-57.0,-50.0,-63.0,-67.0,-75.0,-80.0,-76.0,-84.0,-105.0,-60.0,-46.0,-43.0,-65.0,-131.0,-61.0,-72.0,-97.0,-66.0,-75.0,-77.0,-72.0,-41.0,-154.0,5.0,-60.0,-40.0,-40.0,-70.0,-50.0,11.0,-91.0,-97.0,-68.0,-52.0,-50.0,-59.0,-65.0,-60.0,-54.0,-131.0,-70.0,-33.0,-21.0,-44.0,12.0,11.0,-38.0,-36.0,-49.0,REST
1.6875,1.0,-52.0,-44.0,-42.0,-39.0,-70.0,-110.0,3.0,-27.0,-30.0,-25.0,-27.0,-23.0,-22.0,-31.0,-18.0,-13.0,-17.0,-8.0,-14.0,-44.0,-12.0,-20.0,18.0,-40.0,4.0,10.0,14.0,-12.0,3.0,-18.0,-71.0,-5.0,3.0,4.0,-16.0,-1.0,1.0,82.0,21.0,30.0,52.0,11.0,26.0,-106.0,4.0,-4.0,0.0,37.0,25.0,22.0,25.0,23.0,17.0,-56.0,8.0,38.0,15.0,37.0,-31.0,-49.0,29.0,43.0,-16.0,REST
1.6938,-48.0,-16.0,20.0,12.0,2.0,-27.0,-76.0,47.0,20.0,0.0,8.0,-16.0,6.0,-19.0,-25.0,3.0,3.0,-4.0,-3.0,-10.0,-42.0,14.0,5.0,33.0,-54.0,17.0,3.0,-35.0,55.0,-20.0,2.0,-61.0,-26.0,-31.0,-40.0,-60.0,-50.0,-20.0,61.0,-41.0,-5.0,-30.0,-34.0,-26.0,-13.0,-87.0,-88.0,-62.0,-48.0,-49.0,-65.0,-71.0,-69.0,-67.0,-143.0,-81.0,-56.0,-40.0,-78.0,3.0,-4.0,-69.0,-78.0,-72.0,REST
1.7,97.0,-56.0,-80.0,-84.0,-62.0,-115.0,-152.0,-32.0,-74.0,-83.0,-76.0,-68.0,-87.0,-92.0,-27.0,-86.0,-79.0,-88.0,-88.0,-89.0,-73.0,-70.0,-65.0,-52.0,-107.0,-25.0,-40.0,-118.0,16.0,-67.0,-21.0,-59.0,-54.0,-64.0,-70.0,-82.0,-58.0,-60.0,23.0,-58.0,4.0,-50.0,-17.0,-46.0,-6.0,-76.0,-76.0,-46.0,-25.0,-27.0,-36.0,-38.0,-36.0,-39.0,-104.0,-37.0,-17.0,-5.0,-15.0,-43.0,-18.0,-15.0,-8.0,-59.0,REST
1.7063,4.0,-13.0,15.0,4.0,-5.0,-30.0,-53.0,44.0,26.0,15.0,24.0,1.0,28.0,-2.0,-27.0,33.0,36.0,31.0,33.0,27.0,-14.0,25.0,43.0,48.0,40.0,59.0,62.0,24.0,54.0,39.0,61.0,23.0,40.0,44.0,42.0,28.0,88.0,3.0,92.0,55.0,91.0,53.0,58.0,23.0,-36.0,27.0,2.0,13.0,52.0,41.0,30.0,29.0,26.0,14.0,-42.0,11.0,27.0,27.0,26.0,-38.0,-25.0,19.0,21.0,-21.0,REST
1.7125,50.0,1.0,18.0,13.0,8.0,-24.0,-66.0,38.0,9.0,-3.0,8.0,-4.0,-12.0,-24.0,-23.0,-13.0,-1.0,-16.0,-22.0,-29.0,-35.0,13.0,-14.0,-23.0,32.0,-7.0,-8.0,-30.0,-41.0,-44.0,-14.0,-43.0,-42.0,-48.0,-48.0,-49.0,25.0,-129.0,-1.0,-61.0,1.0,-56.0,-50.0,-62.0,34.0,-83.0,-101.0,-83.0,-58.0,-49.0,-69.0,-78.0,-73.0,-80.0,-127.0,-82.0,-64.0,-29.0,-77.0,-2.0,21.0,-60.0,-74.0,-64.0,REST
1.7188,93.0,-49.0,-71.0,-68.0,-49.0,-95.0,-149.0,-10.0,-56.0,-56.0,-48.0,-45.0,-73.0,-63.0,-51.0,-59.0,-42.0,-54.0,-51.0,-58.0,-37.0,23.0,-23.0,-45.0,37.0,-10.0,-10.0,-48.0,16.0,-30.0,11.0,-55.0,-21.0,-24.0,-20.0,-37.0,27.0,-70.0,43.0,-32.0,31.0,-15.0,-1.0,-11.0,-63.0,-37.0,-32.0,-33.0,15.0,9.0,2.0,1.0,1.0,-16.0,-54.0,-10.0,14.0,14.0,20.0,-56.0,-37.0,22.0,32.0,-35.0,REST
1.725,14.0,1.0,35.0,29.0,14.0,-9.0,-45.0,69.0,43.0,28.0,39.0,7.0,27.0,16.0,-43.0,37.0,48.0,34.0,37.0,25.0,-4.0,69.0,54.0,38.0,56.0,60.0,54.0,16.0,52.0,33.0,51.0,-17.0,27.0,23.0,23.0,-1.0,34.0,1.0,96.0,22.0,62.0,-18.0,12.0,4.0,-2.0,-31.0,-35.0,-20.0,22.0,9.0,0.0,-11.0,-11.0,-21.0,-69.0,-33.0,-1.0,6.0,-17.0,-4.0,-4.0,-11.0,-12.0,-32.0,REST
1.7313,133.0,-33.0,-40.0,-35.0,-30.0,-73.0,-102.0,-10.0,-42.0,-46.0,-34.0,-30.0,-56.0,-42.0,1.0,-58.0,-34.0,-55.0,-57.0,-67.0,-48.0,-46.0,-53.0,-29.0,-49.0,-34.0,-41.0,-90.0,-55.0,-79.0,-43.0,-81.0,-63.0,-76.0,-77.0,-84.0,-70.0,-96.0,-31.0,-55.0,-10.0,-98.0,-60.0,-80.0,45.0,-95.0,-120.0,-80.0,-48.0,-45.0,-56.0,-68.0,-67.0,-60.0,-116.0,-76.0,-36.0,-22.0,-55.0,-9.0,15.0,-39.0,-36.0,-57.0,REST
1.7375,80.0,-51.0,-48.0,-42.0,-44.0,-63.0,-82.0,-5.0,-31.0,-34.0,-18.0,-26.0,-27.0,-30.0,0.0,-22.0,-2.0,-13.0,-8.0,-17.0,-33.0,-6.0,2.0,31.0,14.0,31.0,17.0,0.0,18.0,-5.0,33.0,-37.0,5.0,10.0,10.0,-1.0,25.0,-15.0,30.0,40.0,70.0,20.0,27.0,13.0,-75.0,-2.0,-40.0,-2.0,38.0,36.0,24.0,25.0,17.0,20.0,-37.0,17.0,46.0,13.0,32.0,-56.0,-35.0,29.0,42.0,-24.0,REST
1.7437,63.0,-14.0,29.0,24.0,3.0,-5.0,-26.0,50.0,27.0,9.0,22.0,-2.0,13.0,1.0,7.0,12.0,27.0,12.0,11.0,2.0,-15.0,5.0,10.0,51.0,1.0,26.0,7.0,-14.0,-7.0,5.0,44.0,-46.0,-19.0,-22.0,-28.0,-32.0,-33.0,-23.0,20.0,-30.0,23.0,-35.0,-39.0,-31.0,-18.0,-66.0,-110.0,-57.0,-41.0,-30.0,-50.0,-59.0,-60.0,-48.0,-111.0,-56.0,-38.0,-33.0,-63.0,6.0,16.0,-54.0,-58.0,-56.0,REST
1.75,197.0,-67.0,-79.0,-79.0,-57.0,-107.0,-136.0,-32.0,-74.0,-73.0,-71.0,-56.0,-88.0,-65.0,-8.0,-83.0,-60.0,-79.0,-78.0,-81.0,-49.0,-52.0,-68.0,-52.0,-38.0,-44.0,-48.0,-78.0,-24.0,-71.0,12.0,-92.0,-58.0,-65.0,-65.0,-70.0,-56.0,-77.0,1.0,-58.0,-4.0,-34.0,-36.0,-54.0,-57.0,-64.0,-98.0,-65.0,-39.0,-30.0,-40.0,-43.0,-45.0,-40.0,-96.0,-39.0,-24.0,-16.0,-22.0,-53.0,-20.0,-21.0,-10.0,-64.0,REST
1.7563,73.0,-34.0,1.0,-3.0,-12.0,-49.0,-86.0,39.0,14.0,11.0,7.0,-7.0,12.0,7.0,-34.0,19.0,30.0,22.0,26.0,19.0,-10.0,54.0,47.0,43.0,71.0,60.0,47.0,-3.0,55.0,8.0,104.0,-18.0,37.0,36.0,28.0,-1.0,19.0,8.0,78.0,44.0,72.0,40.0,34.0,16.0,-67.0,4.0,-31.0,0.0,33.0,22.0,20.0,15.0,9.0,2.0,-52.0,-2.0,14.0,7.0,11.0,-53.0,-42.0,3.0,10.0,-43.0,REST
1.7625,105.0,-15.0,13.0,16.0,-7.0,-50.0,-81.0,31.0,7.0,-1.0,-5.0,-10.0,-22.0,-15.0,-15.0,-13.0,-1.0,-16.0,-22.0,-37.0,-37.0,-18.0,-21.0,-6.0,-18.0,2.0,-11.0,-62.0,-33.0,-65.0,39.0,-55.0,-32.0,-42.0,-51.0,-69.0,-46.0,-71.0,-4.0,-62.0,-5.0,-61.0,-62.0,-67.0,72.0,-90.0,-121.0,-62.0,-54.0,-49.0,-57.0,-68.0,-64.0,-64.0,-118.0,-85.0,-50.0,-29.0,-62.0,9.0,22.0,-52.0,-56.0,-60.0,REST
1.7688,154.0,-50.0,-59.0,-45.0,-50.0,-87.0,-111.0,-12.0,-43.0,-40.0,-39.0,-27.0,-56.0,-50.0,4.0,-38.0,-17.0,-32.0,-31.0,-44.0,-16.0,-39.0,-37.0,-46.0,-35.0,-12.0,5.0,-16.0,-50.0,-52.0,54.0,-44.0,-9.0,-3.0,-2.0,-14.0,28.0,-76.0,36.0,-7.0,36.0,4.0,24.0,-21.0,-22.0,-8.0,-37.0,7.0,25.0,25.0,22.0,25.0,24.0,24.0,-24.0,2.0,36.0,17.0,44.0,-39.0,-20.0,39.0,51.0,-14.0,REST
1.775,58.0,8.0,54.0,52.0,22.0,16.0,-25.0,75.0,59.0,45.0,52.0,29.0,45.0,22.0,20.0,58.0,71.0,58.0,58.0,43.0,32.0,46.0,43.0,24.0,46.0,48.0,65.0,45.0,-44.0,10.0,112.0,1.0,35.0,42.0,32.0,26.0,58.0,-26.0,52.0,40.0,53.0,1.0,43.0,-2.0,-4.0,-6.0,-43.0,20.0,18.0,16.0,6.0,4.0,3.0,5.0,-49.0,-21.0,4.0,-5.0,-5.0,13.0,4.0,-3.0,-10.0,-14.0,REST
1.7812,155.0,-29.0,-27.0,-21.0,-26.0,-52.0,-100.0,-5.0,-32.0,-36.0,-27.0,-21.0,-52.0,-43.0,30.0,-44.0,-25.0,-43.0,-45.0,-58.0,-19.0,-43.0,-57.0,-32.0,-34.0,-50.0,-34.0,-50.0,-45.0,-62.0,-22.0,-71.0,-58.0,-59.0,-66.0,-60.0,-29.0,-54.0,-25.0,-55.0,-41.0,-79.0,-52.0,-86.0,25.0,-84.0,-121.0,-37.0,-50.0,-42.0,-56.0,-56.0,-53.0,-53.0,-104.0,-74.0,-39.0,-30.0,-47.0,21.0,13.0,-33.0,-42.0,-43.0,REST
1.7875,77.0,-50.0,-38.0,-26.0,-36.0,-56.0,-101.0,-10.0,-23.0,-21.0,-10.0,-14.0,-22.0,-16.0,-5.0,-12.0,3.0,-3.0,3.0,-6.0,5.0,-8.0,1.0,6.0,-15.0,18.0,27.0,-12.0,47.0,21.0,35.0,-24.0,7.0,23.0,14.0,-6.0,24.0,43.0,70.0,15.0,18.0,41.0,26.0,6.0,-89.0,17.0,-37.0,24.0,35.0,29.0,25.0,36.0,26.0,22.0,-31.0,-1.0,36.0,5.0,33.0,-12.0,-48.0,35.0,33.0,-17.0,REST
1.7938,-8.0,-15.0,34.0,39.0,1.0,-8.0,-82.0,34.0,25.0,18.0,28.0,7.0,18.0,1.0,-18.0,11.0,29.0,20.0,20.0,6.0,8.0,-6.0,8.0,18.0,-37.0,21.0,18.0,-37.0,-2.0,-23.0,44.0,-21.0,-18.0,-14.0,-29.0,-41.0,-34.0,5.0,11.0,-44.0,-26.0,-22.0,-31.0,-33.0,10.0,-61.0,-120.0,-48.0,-49.0,-35.0,-46.0,-45.0,-53.0,-46.0,-109.0,-81.0,-45.0,-36.0,-62.0,51.0,8.0,-45.0,-62.0,-58.0,REST
1.8,106.0,-70.0,-78.0,-70.0,-78.0,-92.0,-161.0,-41.0,-80.0,-73.0,-68.0,-50.0,-77.0,-80.0,-11.0,-88.0,-59.0,-71.0,-67.0,-78.0,-29.0,-76.0,-71.0,-32.0,-67.0,-67.0,-53.0,-95.0,-70.0,-98.0,-26.0,-65.0,-69.0,-69.0,-77.0,-71.0,-54.0,-60.0,-32.0,-41.0,-43.0,-55.0,-52.0,-69.0,-3.0,-65.0,-121.0,-53.0,-49.0,-28.0,-38.0,-23.0,-32.0,-34.0,-102.0,-64.0,-18.0,-16.0,-14.0,2.0,-12.0,-1.0,1.0,-57.0,REST
1.8062,2.0,-38.0,-8.0,-12.0,-38.0,-26.0,-77.0,40.0,2.0,1.0,7.0,-6.0,25.0,4.0,-22.0,11.0,26.0,23.0,34.0,24.0,12.0,39.0,31.0,27.0,71.0,10.0,41.0,34.0,20.0,-10.0,48.0,1.0,18.0,29.0,25.0,26.0,77.0,8.0,61.0,61.0,32.0,33.0,27.0,-5.0,-52.0,11.0,-43.0,12.0,22.0,23.0,15.0,35.0,20.0,2.0,-57.0,-28.0,20.0,3.0,14.0,-2.0,-29.0,28.0,26.0,-31.0,REST
1.8125,36.0,-22.0,0.0,-5.0,-21.0,-31.0,-95.0,37.0,-12.0,-17.0,-12.0,-21.0,-20.0,-26.0,-23.0,-29.0,-16.0,-29.0,-27.0,-35.0,-26.0,-46.0,-35.0,-49.0,3.0,-34.0,-22.0,-29.0,-51.0,-66.0,-12.0,-38.0,-48.0,-55.0,-60.0,-55.0,-55.0,-39.0,3.0,-58.0,-41.0,-68.0,-56.0,-82.0,25.0,-105.0,-138.0,-64.0,-75.0,-65.0,-75.0,-68.0,-79.0,-93.0,-142.0,-114.0,-64.0,-44.0,-89.0,21.0,17.0,-53.0,-73.0,-79.0,REST
1.8188,62.0,-67.0,-77.0,-73.0,-68.0,-89.0,-142.0,-17.0,-72.0,-60.0,-60.0,-49.0,-63.0,-58.0,-40.0,-67.0,-53.0,-59.0,-50.0,-52.0,-14.0,-69.0,-50.0,-58.0,-24.0,-40.0,-23.0,-31.0,-49.0,-100.0,-3.0,-40.0,-30.0,-30.0,-27.0,-32.0,-47.0,-26.0,42.0,-19.0,24.0,-10.0,-4.0,-36.0,-69.0,-27.0,-82.0,-13.0,-4.0,-1.0,-3.0,13.0,-3.0,-22.0,-60.0,-31.0,14.0,1.0,7.0,-43.0,-42.0,31.0,23.0,-51.0,REST
1.825,-54.0,-17.0,28.0,21.0,-5.0,-4.0,-42.0,63.0,26.0,25.0,28.0,3.0,36.0,1.0,-49.0,26.0,34.0,32.0,40.0,31.0,26.0,44.0,31.0,32.0,17.0,22.0,35.0,26.0,16.0,-46.0,77.0,8.0,9.0,13.0,9.0,2.0,-9.0,43.0,48.0,19.0,38.0,7.0,16.0,-22.0,-17.0,-17.0,-81.0,-18.0,-1.0,0.0,-5.0,-1.0,-13.0,-40.0,-80.0,-43.0,-4.0,-5.0,-23.0,16.0,-6.0,6.0,-16.0,-46.0,REST
1.8313,68.0,-44.0,-44.0,-43.0,-48.0,-79.0,-107.0,8.0,-51.0,-46.0,-43.0,-36.0,-56.0,-66.0,-27.0,-65.0,-47.0,-54.0,-53.0,-62.0,-18.0,-60.0,-76.0,-87.0,-68.0,-60.0,-52.0,-67.0,-61.0,-48.0,-34.0,-56.0,-75.0,-78.0,-77.0,-70.0,-82.0,-5.0,-35.0,-56.0,-51.0,-83.0,-55.0,-79.0,43.0,-95.0,-126.0,-73.0,-56.0,-37.0,-44.0,-44.0,-48.0,-79.0,-110.0,-71.0,-29.0,-14.0,-37.0,30.0,29.0,-15.0,-27.0,-62.0,REST
1.8375,41.0,-57.0,-48.0,-39.0,-43.0,-67.0,-84.0,20.0,-34.0,-22.0,-16.0,-16.0,-12.0,-22.0,-29.0,-21.0,-10.0,1.0,10.0,2.0,12.0,-31.0,-18.0,-26.0,-18.0,1.0,14.0,26.0,-63.0,28.0,12.0,-29.0,-3.0,11.0,20.0,27.0,66.0,12.0,59.0,23.0,40.0,53.0,37.0,12.0,-58.0,5.0,-36.0,7.0,41.0,47.0,43.0,51.0,41.0,4.0,-27.0,18.0,52.0,30.0,48.0,-35.0,-28.0,46.0,48.0,-34.0,REST
1.8438,-26.0,-23.0,25.0,31.0,12.0,-8.0,-30.0,51.0,21.0,21.0,31.0,11.0,33.0,3.0,-21.0,13.0,22.0,30.0,32.0,21.0,8.0,-3.0,3.0,12.0,-13.0,-1.0,14.0,7.0,-40.0,-36.0,32.0,-33.0,-21.0,-16.0,-15.0,-4.0,26.0,-21.0,33.0,-28.0,-16.0,26.0,-19.0,-46.0,15.0,-50.0,-111.0,-34.0,-25.0,-18.0,-25.0,-30.0,-32.0,-51.0,-102.0,-54.0,-23.0,-8.0,-45.0,22.0,26.0,-30.0,-46.0,-60.0,REST
1.85,68.0,-63.0,-70.0,-60.0,-41.0,-95.0,-117.0,-23.0,-66.0,-51.0,-47.0,-33.0,-60.0,-68.0,-12.0,-71.0,-50.0,-53.0,-48.0,-53.0,-17.0,-79.0,-68.0,-59.0,-53.0,-52.0,-38.0,-45.0,-27.0,-106.0,-4.0,-58.0,-49.0,-51.0,-49.0,-35.0,-25.0,-15.0,-1.0,-30.0,-36.0,3.0,-22.0,-88.0,-31.0,-45.0,-94.0,-32.0,-16.0,-11.0,-12.0,-7.0,-8.0,-21.0,-82.0,-32.0,8.0,9.0,2.0,-18.0,-3.0,6.0,10.0,-67.0,REST
1.8563,-21.0,-20.0,20.0,18.0,13.0,-34.0,-61.0,53.0,30.0,33.0,39.0,19.0,40.0,20.0,-21.0,35.0,43.0,46.0,55.0,49.0,46.0,17.0,40.0,48.0,33.0,56.0,58.0,22.0,65.0,-5.0,63.0,9.0,44.0,49.0,42.0,35.0,25.0,56.0,83.0,48.0,81.0,65.0,58.0,-5.0,-58.0,25.0,-13.0,27.0,55.0,50.0,46.0,54.0,46.0,36.0,-31.0,21.0,58.0,35.0,42.0,-4.0,-11.0,40.0,44.0,-30.0,REST
1.8625,49.0,-10.0,21.0,22.0,15.0,-46.0,-69.0,47.0,16.0,8.0,15.0,5.0,0.0,-7.0,7.0,-5.0,4.0,-2.0,1.0,-12.0,17.0,-24.0,-23.0,-4.0,-35.0,-21.0,-11.0,-69.0,-61.0,-65.0,-19.0,-50.0,-33.0,-42.0,-50.0,-44.0,-63.0,-86.0,-13.0,-69.0,-28.0,-24.0,-45.0,-81.0,29.0,-72.0,-115.0,-44.0,-42.0,-31.0,-42.0,-45.0,-45.0,-40.0,-103.0,-54.0,-22.0,-7.0,-46.0,48.0,50.0,-29.0,-42.0,-58.0,REST
1.8687,101.0,-55.0,-65.0,-57.0,-46.0,-103.0,-108.0,4.0,-46.0,-43.0,-38.0,-32.0,-58.0,-60.0,10.0,-43.0,-33.0,-36.0,-24.0,-39.0,7.0,-28.0,-44.0,-24.0,-48.0,-45.0,-13.0,-47.0,-7.0,-45.0,3.0,-49.0,-20.0,-21.0,-23.0,-17.0,-40.0,2.0,29.0,1.0,11.0,33.0,13.0,-40.0,-49.0,-13.0,-56.0,20.0,23.0,29.0,26.0,31.0,26.0,21.0,-42.0,24.0,47.0,33.0,44.0,-23.0,-7.0,45.0,49.0,-33.0,REST
1.875,-34.0,-14.0,35.0,36.0,8.0,-14.0,-36.0,85.0,46.0,41.0,50.0,17.0,34.0,-7.0,-2.0,50.0,48.0,52.0,57.0,42.0,39.0,30.0,24.0,10.0,26.0,22.0,49.0,41.0,49.0,34.0,42.0,-16.0,19.0,25.0,20.0,31.0,-2.0,86.0,60.0,33.0,52.0,30.0,32.0,-23.0,1.0,-27.0,-69.0,26.0,16.0,17.0,12.0,11.0,7.0,6.0,-80.0,-6.0,14.0,9.0,-1.0,12.0,12.0,2.0,-2.0,-26.0,REST
1.8813,83.0,-54.0,-44.0,-30.0,-27.0,-69.0,-118.0,7.0,-42.0,-36.0,-28.0,-20.0,-53.0,-74.0,-4.0,-55.0,-44.0,-46.0,-47.0,-53.0,2.0,-69.0,-75.0,-71.0,-56.0,-69.0,-42.0,-86.0,-110.0,-63.0,-34.0,-81.0,-64.0,-71.0,-71.0,-45.0,-82.0,-41.0,-11.0,-86.0,-25.0,-41.0,-64.0,-94.0,39.0,-100.0,-140.0,-46.0,-58.0,-43.0,-54.0,-52.0,-49.0,-28.0,-116.0,-61.0,-36.0,-23.0,-40.0,5.0,22.0,-35.0,-36.0,-63.0,REST
1.8875,69.0,-55.0,-43.0,-29.0,-27.0,-64.0,-100.0,7.0,-24.0,-17.0,-13.0,-7.0,-15.0,-48.0,-24.0,-20.0,-8.0,-3.0,3.0,-2.0,12.0,-15.0,-2.0,31.0,-29.0,7.0,31.0,-6.0,17.0,7.0,60.0,-24.0,22.0,26.0,32.0,45.0,33.0,20.0,91.0,19.0,60.0,90.0,27.0,5.0,-58.0,25.0,-27.0,20.0,40.0,41.0,31.0,46.0,36.0,50.0,-21.0,17.0,48.0,23.0,48.0,-43.0,-33.0,35.0,41.0,-27.0,REST
1.8938,19.0,0.0,49.0,54.0,35.0,-5.0,-22.0,53.0,43.0,36.0,41.0,26.0,35.0,-5.0,-4.0,25.0,37.0,36.0,35.0,25.0,15.0,14.0,8.0,35.0,-16.0,26.0,37.0,6.0,13.0,-27.0,48.0,-8.0,12.0,11.0,8.0,27.0,7.0,-1.0,51.0,1.0,30.0,21.0,-22.0,-49.0,57.0,-34.0,-94.0,-29.0,-20.0,-13.0,-24.0,-24.0,-26.0,-9.0,-78.0,-61.0,-16.0,-10.0,-37.0,25.0,27.0,-37.0,-45.0,-43.0,REST
1.9,124.0,-42.0,-49.0,-35.0,-21.0,-99.0,-112.0,-30.0,-50.0,-40.0,-36.0,-19.0,-56.0,-62.0,23.0,-60.0,-39.0,-43.0,-40.0,-47.0,15.0,-59.0,-72.0,-56.0,-19.0,-50.0,-31.0,-81.0,-85.0,-104.0,-13.0,-33.0,-35.0,-41.0,-47.0,-33.0,-69.0,-36.0,4.0,-29.0,-2.0,-23.0,-37.0,-81.0,43.0,-60.0,-94.0,-29.0,-11.0,1.0,-6.0,1.0,-4.0,5.0,-56.0,-35.0,16.0,11.0,9.0,-17.0,4.0,4.0,11.0,-39.0,REST
1.9062,-18.0,-16.0,23.0,24.0,13.0,-50.0,-59.0,45.0,36.0,35.0,43.0,24.0,36.0,-6.0,15.0,43.0,51.0,56.0,62.0,49.0,63.0,50.0,53.0,79.0,97.0,35.0,52.0,-19.0,82.0,3.0,58.0,29.0,50.0,51.0,43.0,33.0,10.0,32.0,93.0,42.0,64.0,52.0,37.0,-10.0,3.0,-5.0,-15.0,33.0,67.0,67.0,56.0,63.0,48.0,38.0,-29.0,13.0,64.0,40.0,44.0,-20.0,-13.0,39.0,37.0,-7.0,REST
1.9125,4.0,-4.0,34.0,34.0,25.0,-37.0,-59.0,44.0,26.0,23.0,30.0,18.0,2.0,-30.0,33.0,12.0,22.0,17.0,13.0,-4.0,26.0,-6.0,-15.0,-2.0,5.0,-11.0,4.0,-31.0,-16.0,-44.0,3.0,-15.0,-17.0,-23.0,-24.0,-8.0,-12.0,-48.0,4.0,-53.0,-23.0,-42.0,-63.0,-105.0,112.0,-79.0,-117.0,-48.0,-32.0,-12.0,-31.0,-36.0,-38.0,-48.0,-112.0,-89.0,-15.0,3.0,-42.0,29.0,39.0,-24.0,-40.0,-39.0,REST
1.9188,58.0,-48.0,-45.0,-36.0,-20.0,-94.0,-120.0,-10.0,-35.0,-25.0,-20.0,-13.0,-43.0,-45.0,27.0,-33.0,-14.0,-15.0,-12.0,-24.0,31.0,-56.0,-45.0,-28.0,-4.0,-11.0,3.0,-25.0,-47.0,-46.0,29.0,-15.0,-5.0,-3.0,-5.0,2.0,-27.0,16.0,10.0,0.0,26.0,1.0,6.0,-47.0,13.0,-7.0,-45.0,2.0,27.0,44.0,36.0,36.0,33.0,17.0,-31.0,-25.0,53.0,44.0,49.0,-32.0,-21.0,50.0,58.0,-12.0,REST
1.925,-51.0,-3.0,53.0,53.0,33.0,-17.0,-31.0,72.0,58.0,54.0,60.0,35.0,56.0,24.0,11.0,56.0,65.0,67.0,68.0,56.0,56.0,19.0,38.0,70.0,16.0,48.0,63.0,14.0,56.0,-25.0,116.0,31.0,41.0,42.0,34.0,32.0,6.0,63.0,52.0,21.0,60.0,37.0,31.0,-28.0,22.0,-2.0,-39.0,3.0,21.0,33.0,22.0,15.0,12.0,-2.0,-46.0,-44.0,20.0,25.0,-2.0,0.0,5.0,4.0,-3.0,-20.0,REST
1.9312,85.0,-28.0,-18.0,-8.0,-8.0,-65.0,-74.0,7.0,-24.0,-22.0,-13.0,-1.0,-30.0,-50.0,21.0,-40.0,-23.0,-30.0,-31.0,-43.0,14.0,-53.0,-70.0,-89.0,-111.0,-67.0,-21.0,-20.0,-45.0,-121.0,21.0,-35.0,-41.0,-49.0,-45.0,-20.0,-3.0,-52.0,-19.0,-68.0,-18.0,-30.0,-61.0,-91.0,69.0,-78.0,-128.0,-65.0,-49.0,-29.0,-41.0,-48.0,-48.0,-63.0,-99.0,-88.0,-28.0,-6.0,-50.0,-29.0,17.0,-30.0,-44.0,-58.0,REST
1.9375,52.0,-48.0,-31.0,-13.0,-14.0,-63.0,-70.0,8.0,-14.0,-8.0,5.0,9.0,1.0,-21.0,1.0,-6.0,12.0,14.0,22.0,12.0,68.0,8.0,-7.0,3.0,4.0,-6.0,36.0,25.0,15.0,-12.0,65.0,-1.0,33.0,34.0,34.0,43.0,69.0,9.0,69.0,50.0,71.0,62.0,28.0,4.0,-7.0,25.0,-30.0,18.0,52.0,56.0,53.0,55.0,48.0,22.0,-15.0,6.0,58.0,42.0,49.0,-76.0,-32.0,48.0,50.0,-13.0,REST
1.9438,11.0,-6.0,53.0,62.0,42.0,-4.0,-11.0,53.0,50.0,43.0,59.0,40.0,55.0,32.0,4.0,37.0,51.0,51.0,53.0,42.0,79.0,26.0,21.0,76.0,28.0,16.0,32.0,-55.0,56.0,12.0,85.0,-5.0,17.0,7.0,-11.0,-18.0,-46.0,5.0,14.0,12.0,26.0,3.0,-22.0,-46.0,95.0,-24.0,-95.0,-23.0,-15.0,-1.0,-7.0,-14.0,-14.0,-36.0,-71.0,-65.0,-16.0,8.0,-32.0,11.0,29.0,-22.0,-34.0,-32.0,REST
1.95,167.0,-48.0,-47.0,-34.0,-17.0,-87.0,-96.0,-23.0,-42.0,-36.0,-25.0,-6.0,-37.0,-45.0,20.0,-50.0,-33.0,-33.0,-27.0,-33.0,49.0,-72.0,-56.0,1.0,-59.0,-34.0,-24.0,-104.0,-10.0,-46.0,53.0,-42.0,-25.0,-34.0,-45.0,-46.0,-72.0,-11.0,-12.0,-33.0,-7.0,-36.0,-35.0,-79.0,59.0,-26.0,-91.0,-18.0,-9.0,5.0,4.0,8.0,6.0,-28.0,-29.0,-43.0,16.0,24.0,12.0,-22.0,14.0,22.0,18.0,-27.0,REST
1.9563,79.0,-16.0,26.0,30.0,31.0,-8.0,-1.0,58.0,42.0,40.0,49.0,36.0,50.0,4.0,8.0,47.0,54.0,59.0,67.0,59.0,97.0,39.0,40.0,58.0,44.0,50.0,68.0,42.0,29.0,26.0,128.0,22.0,59.0,63.0,60.0,70.0,109.0,34.0,76.0,54.0,64.0,69.0,46.0,-5.0,22.0,54.0,-16.0,31.0,59.0,58.0,55.0,60.0,49.0,7.0,7.0,-7.0,53.0,39.0,39.0,-50.0,-7.0,42.0,34.0,-16.0,REST
1.9625,114.0,-8.0,28.0,32.0,42.0,-14.0,-7.0,48.0,23.0,18.0,29.0,18.0,5.0,-29.0,26.0,5.0,18.0,11.0,11.0,-3.0,58.0,1.0,-28.0,-20.0,-7.0,-29.0,2.0,-17.0,-20.0,-58.0,58.0,-32.0,-17.0,-28.0,-33.0,-14.0,1.0,-20.0,-30.0,-68.0,-42.0,-34.0,-48.0,-76.0,127.0,-63.0,-120.0,-51.0,-42.0,-20.0,-32.0,-39.0,-44.0,-77.0,-87.0,-96.0,-34.0,-7.0,-52.0,-5.0,48.0,-30.0,-49.0,-56.0,REST
1.9688,160.0,-54.0,-58.0,-51.0,-22.0,-93.0,-122.0,-17.0,-44.0,-38.0,-29.0,-18.0,-46.0,-70.0,21.0,-40.0,-26.0,-28.0,-20.0,-24.0,32.0,-44.0,-47.0,-37.0,-28.0,-33.0,1.0,-61.0,23.0,-62.0,74.0,-40.0,-3.0,-10.0,-22.0,-18.0,-48.0,81.0,-14.0,12.0,-7.0,2.0,4.0,-38.0,5.0,3.0,-58.0,11.0,25.0,41.0,34.0,41.0,32.0,-14.0,-6.0,-20.0,43.0,31.0,43.0,-56.0,-10.0,52.0,51.0,-22.0,REST
1.975,54.0,-1.0,51.0,42.0,32.0,4.0,-28.0,68.0,58.0,46.0,59.0,32.0,62.0,20.0,8.0,59.0,61.0,63.0,70.0,67.0,46.0,34.0,43.0,70.0,15.0,35.0,68.0,-30.0,105.0,-20.0,149.0,-4.0,48.0,42.0,21.0,21.0,1.0,89.0,21.0,69.0,54.0,42.0,27.0,-17.0,40.0,32.0,-46.0,32.0,33.0,41.0,29.0,32.0,25.0,-23.0,-27.0,-33.0,24.0,21.0,10.0,-5.0,18.0,21.0,13.0,-6.0,REST
1.9813,147.0,-30.0,-14.0,-16.0,-1.0,-43.0,-43.0,5.0,-19.0,-22.0,-11.0,-8.0,-23.0,-33.0,35.0,-33.0,-22.0,-29.0,-25.0,-29.0,-18.0,-50.0,-57.0,-33.0,-59.0,-59.0,-18.0,-100.0,-45.0,-91.0,50.0,-71.0,-36.0,-48.0,-61.0,-47.0,-28.0,-63.0,-29.0,-32.0,-16.0,-35.0,-57.0,-96.0,112.0,-54.0,-123.0,-34.0,-36.0,-19.0,-27.0,-26.0,-26.0,-64.0,-78.0,-89.0,-27.0,-5.0,-25.0,3.0,26.0,-20.0,-17.0,-42.0,REST
1.9875,112.0,-39.0,-18.0,-15.0,3.0,-32.0,-21.0,15.0,-2.0,1.0,10.0,6.0,11.0,-9.0,12.0,6.0,18.0,15.0,27.0,22.0,-2.0,4.0,-3.0,15.0,12.0,2.0,47.0,6.0,27.0,-26.0,98.0,-22.0,36.0,41.0,35.0,42.0,100.0,-28.0,93.0,34.0,80.0,51.0,27.0,-27.0,37.0,23.0,-23.0,35.0,62.0,63.0,63.0,72.0,61.0,10.0,7.0,-3.0,53.0,38.0,62.0,-34.0,-25.0,55.0,65.0,-7.0,REST
1.9937,36.0,2.0,56.0,60.0,53.0,35.0,29.0,65.0,58.0,44.0,57.0,33.0,54.0,23.0,-6.0,43.0,53.0,47.0,48.0,37.0,15.0,33.0,9.0,11.0,12.0,1.0,42.0,13.0,22.0,-29.0,100.0,-27.0,16.0,12.0,4.0,24.0,96.0,-91.0,20.0,-25.0,37.0,10.0,-23.0,-73.0,111.0,-35.0,-95.0,-31.0,-11.0,3.0,-7.0,-11.0,-15.0,-54.0,-61.0,-73.0,-24.0,-1.0,-38.0,23.0,37.0,-20.0,-35.0,-36.0,REST
2.0,129.0,-54.0,-59.0,-44.0,-25.0,-65.0,-76.0,-20.0,-52.0,-52.0,-39.0,-28.0,-54.0,-50.0,-4.0,-59.0,-41.0,-50.0,-46.0,-52.0,-2.0,-74.0,-70.0,-60.0,-83.0,-76.0,-35.0,-65.0,-88.0,-72.0,24.0,-89.0,-39.0,-50.0,-52.0,-28.0,6.0,-115.0,-47.0,-36.0,11.0,-25.0,-52.0,-96.0,46.0,-49.0,-104.0,-44.0,-21.0,-4.0,-9.0,-6.0,-10.0,-45.0,-55.0,-62.0,-8.0,7.0,-7.0,-33.0,4.0,9.0,4.0,-51.0,REST
4.1,88.0,-16.0,-16.0,-3.0,3.0,-50.0,-71.0,-1.0,-30.0,-30.0,-20.0,-8.0,-40.0,-68.0,-9.0,-44.0,-28.0,-36.0,-36.0,-54.0,-45.0,-69.0,-51.0,-30.0,-95.0,-33.0,-22.0,-44.0,-52.0,-86.0,-15.0,-30.0,-32.0,-33.0,-40.0,-24.0,-59.0,-96.0,-27.0,-38.0,-43.0,-21.0,-43.0,2.0,68.0,-72.0,-102.0,-45.0,-24.0,2.0,-24.0,-32.0,-34.0,-42.0,-41.0,-48.0,-30.0,-3.0,-17.0,-5.0,27.0,-10.0,-16.0,-11.0,LEFT
4.1063,-9.0,-21.0,-1.0,9.0,3.0,-37.0,-58.0,35.0,15.0,13.0,19.0,8.0,10.0,-35.0,-37.0,24.0,32.0,31.0,37.0,18.0,-14.0,29.0,22.0,35.0,17.0,13.0,40.0,34.0,-6.0,23.0,39.0,5.0,35.0,48.0,42.0,45.0,11.0,11.0,69.0,38.0,45.0,78.0,65.0,83.0,-12.0,23.0,0.0,45.0,76.0,80.0,60.0,60.0,49.0,37.0,37.0,35.0,48.0,34.0,60.0,-35.0,-8.0,59.0,49.0,23.0,LEFT
4.1125,-2.0,17.0,51.0,50.0,33.0,7.0,-10.0,70.0,53.0,42.0,43.0,26.0,26.0,-27.0,-37.0,34.0,43.0,34.0,32.0,13.0,-11.0,11.0,-2.0,-8.0,0.0,5.0,11.0,-9.0,-54.0,5.0,20.0,-12.0,-5.0,-6.0,-17.0,-6.0,-27.0,-62.0,-15.0,-34.0,-16.0,5.0,-12.0,-5.0,106.0,-54.0,-74.0,-26.0,-11.0,5.0,-22.0,-31.0,-36.0,-18.0,-39.0,-51.0,-35.0,-10.0,-36.0,22.0,55.0,-16.0,-44.0,-9.0,LEFT
4.1188,125.0,-33.0,-53.0,-50.0,-29.0,-71.0,-65.0,-11.0,-43.0,-35.0,-39.0,-18.0,-55.0,-73.0,-29.0,-53.0,-34.0,-44.0,-41.0,-54.0,-20.0,-74.0,-64.0,-56.0,-66.0,-34.0,-31.0,-58.0,-63.0,-37.0,-5.0,-48.0,-31.0,-30.0,-36.0,-17.0,4.0,-111.0,-25.0,-15.0,-6.0,-5.0,-21.0,-8.0,52.0,-33.0,-61.0,-33.0,1.0,18.0,1.0,0.0,-4.0,11.0,-2.0,-14.0,-7.0,1.0,21.0,-52.0,1.0,30.0,16.0,-6.0,LEFT
4.125,0.0,-1.0,32.0,29.0,30.0,12.0,16.0,64.0,43.0,40.0,42.0,26.0,46.0,16.0,-35.0,36.0,48.0,45.0,51.0,39.0,44.0,37.0,44.0,61.0,36.0,50.0,54.0,36.0,48.0,40.0,105.0,8.0,39.0,51.0,46.0,62.0,98.0,-33.0,45.0,17.0,43.0,64.0,36.0,88.0,3.0,11.0,-37.0,-2.0,30.0,35.0,23.0,22.0,16.0,12.0,5.0,-2.0,-4.0,-6.0,12.0,-59.0,-15.0,21.0,-4.0,2.0,LEFT
