Time,Fc5,Fc3,Fc1,Fcz,Fc2,Fc4,Fc6,C5,C3,C1,Cz,C2,C4,C6,Cp5,Cp3,Cp1,Cpz,Cp2,Cp4,Cp6,Fp1,Fpz,Fp2,Af7,Af3,Afz,Af4,Af8,F7,F5,F3,F1,Fz,F2,F4,F6,F8,Ft7,Ft8,T7,T8,T9,T10,Tp7,Tp8,P7,P5,P3,P1,Pz,P2,P4,P6,P8,Po7,Po3,Poz,Po4,Po8,O1,Oz,O2,Iz
0.0,-57,-13,-15,-12,-13,-8,-40,-54,-12,-14,-29,-15,-15,-25,-10,-14,-21,-25,-23,-34,-24,-110,-89,-131,-54,-55,-51,-70,-106,-20,-33,-28,-31,-29,-31,-27,-57,-88,-18,-38,2,-11,7,-46,-2,-44,-7,-16,-43,-42,-44,-45,-44,-52,-48,-38,-42,-68,-76,-103,-51,-56,-124,-28
0.00625,-49,-11,-10,-12,-19,-24,-58,-51,-19,-23,-41,-31,-34,-46,-23,-30,-40,-41,-40,-53,-40,-95,-80,-130,-46,-48,-44,-70,-110,-17,-14,-32,-27,-26,-32,-26,-67,-86,-6,-52,13,-35,-7,-10,-25,-60,-31,-42,-67,-64,-66,-62,-62,-60,-55,-55,-63,-82,-87,-99,-59,-70,-149,-40
0.0125,-55,-17,-16,-19,-24,-29,-66,-61,-30,-36,-53,-41,-48,-56,-50,-47,-56,-59,-58,-70,-54,-110,-81,-129,-52,-54,-50,-76,-109,-27,-21,-44,-40,-34,-43,-40,-74,-84,-28,-63,-40,-61,-27,3,-41,-63,-43,-54,-74,-79,-79,-76,-70,-66,-54,-63,-72,-91,-92,-91,-67,-77,-153,-37
0.01875,-73,-42,-40,-37,-37,-40,-71,-78,-53,-53,-65,-55,-58,-67,-50,-60,-68,-69,-68,-82,-65,-122,-93,-140,-65,-67,-63,-86,-117,-35,-46,-52,-54,-51,-54,-51,-72,-97,-43,-60,-35,-34,-18,-18,-16,-65,-13,-47,-81,-88,-88,-86,-83,-77,-65,-52,-66,-100,-105,-105,-67,-72,-148,-26
0.025,-87,-53,-52,-51,-45,-43,-71,-87,-65,-64,-73,-66,-64,-70,-48,-71,-78,-78,-76,-91,-73,-99,-83,-131,-57,-59,-60,-78,-103,-42,-31,-55,-49,-53,-55,-50,-70,-101,-43,-67,-8,-77,-22,-16,-39,-73,-43,-65,-97,-103,-100,-100,-99,-92,-75,-82,-90,-117,-119,-118,-75,-82,-161,-35
0.03125,-76,-40,-48,-55,-60,-61,-91,-83,-59,-62,-81,-77,-77,-90,-67,-72,-84,-83,-86,-100,-84,-119,-94,-140,-73,-73,-70,-88,-116,-56,-21,-60,-51,-61,-68,-62,-88,-112,-58,-78,-42,-89,-60,-13,-66,-63,-74,-74,-96,-102,-99,-97,-92,-84,-59,-95,-94,-110,-108,-100,-97,-95,-175,-54
0.0375,-73,-29,-47,-66,-67,-71,-90,-77,-46,-60,-89,-79,-81,-92,-54,-61,-78,-82,-89,-99,-83,-102,-77,-124,-45,-49,-59,-80,-100,-16,-8,-51,-41,-51,-59,-53,-80,-110,-25,-71,-46,-64,-28,-12,-37,-71,-44,-56,-83,-96,-95,-96,-92,-89,-67,-69,-80,-105,-114,-115,-98,-92,-176,-58
0.04375,-54,-18,-34,-55,-52,-62,-84,-72,-42,-55,-77,-70,-81,-92,-53,-63,-76,-77,-89,-103,-90,-102,-78,-130,-37,-36,-52,-77,-109,-17,6,-46,-33,-41,-53,-49,-80,-109,-40,-77,-34,-80,-31,-25,-50,-89,-60,-71,-95,-105,-102,-107,-104,-105,-91,-80,-91,-115,-123,-125,-89,-90,-173,-53
0.05,-74,-35,-41,-55,-63,-74,-100,-94,-65,-67,-89,-83,-92,-101,-80,-83,-89,-88,-100,-116,-102,-134,-98,-148,-88,-86,-70,-95,-132,-47,-25,-62,-53,-58,-72,-71,-98,-119,-41,-83,-36,-68,-34,-32,-64,-110,-73,-81,-105,-108,-103,-106,-100,-100,-88,-93,-99,-111,-115,-112,-87,-90,-158,-49
0.05625,-89,-49,-52,-67,-71,-74,-95,-99,-74,-73,-90,-74,-81,-81,-70,-82,-88,-85,-87,-102,-81,-119,-84,-122,-68,-70,-53,-73,-109,-27,-17,-46,-38,-42,-51,-46,-70,-93,-31,-56,-26,-26,-35,-32,-54,-80,-69,-76,-94,-93,-88,-87,-82,-76,-59,-88,-90,-100,-98,-95,-88,-86,-142,-45
0.0625,-63,-22,-26,-35,-37,-39,-64,-79,-54,-49,-59,-50,-51,-53,-69,-68,-67,-65,-63,-77,-55,-113,-84,-124,-60,-58,-36,-54,-96,-29,-8,-23,-20,-26,-33,-29,-51,-82,-21,-45,-13,-40,-57,-37,-57,-58,-77,-79,-92,-93,-84,-84,-80,-70,-56,-101,-102,-107,-101,-100,-91,-84,-136,-52
0.06875,-63,-29,-32,-41,-48,-51,-70,-87,-60,-61,-78,-74,-66,-67,-87,-87,-86,-89,-86,-97,-72,-135,-104,-143,-84,-86,-68,-79,-110,-51,-41,-52,-55,-61,-68,-63,-76,-111,-53,-72,-71,-78,-59,-12,-86,-88,-102,-107,-120,-125,-116,-110,-106,-98,-81,-127,-128,-127,-122,-120,-105,-89,-139,-56
0.075,-108,-65,-67,-78,-83,-83,-100,-116,-82,-89,-105,-100,-99,-102,-95,-102,-105,-105,-103,-116,-97,-154,-110,-140,-99,-100,-79,-87,-110,-54,-61,-64,-60,-66,-71,-67,-84,-119,-53,-86,-40,-89,-43,-13,-72,-98,-74,-89,-106,-115,-105,-109,-103,-101,-83,-103,-107,-118,-121,-123,-114,-98,-155,-68
0.08125,-78,-35,-37,-48,-55,-62,-92,-73,-47,-53,-68,-70,-79,-97,-59,-67,-71,-74,-82,-100,-90,-129,-88,-124,-80,-82,-55,-72,-109,-37,-42,-39,-29,-39,-46,-46,-73,-112,-37,-80,-40,-67,-55,-24,-53,-102,-67,-69,-87,-98,-90,-95,-90,-91,-79,-91,-100,-111,-109,-117,-107,-102,-173,-68
0.0875,-79,-32,-30,-37,-42,-45,-80,-86,-45,-50,-65,-63,-64,-78,-66,-68,-68,-76,-78,-90,-77,-122,-88,-124,-78,-79,-47,-62,-107,-41,-45,-31,-27,-32,-36,-34,-58,-105,-49,-67,-35,-55,-40,-18,-60,-91,-78,-76,-90,-101,-95,-89,-78,-76,-62,-99,-107,-114,-99,-105,-97,-98,-173,-58
0.09375,-89,-45,-44,-39,-35,-29,-65,-101,-62,-63,-69,-63,-54,-71,-73,-74,-77,-82,-75,-84,-69,-133,-103,-134,-95,-96,-59,-63,-109,-55,-77,-42,-50,-48,-42,-40,-48,-92,-63,-52,-48,-39,-34,-23,-67,-78,-73,-72,-91,-95,-90,-82,-70,-67,-58,-89,-91,-103,-90,-96,-92,-90,-161,-52
0.1,-104,-59,-53,-46,-40,-29,-56,-102,-63,-61,-64,-68,-45,-55,-67,-70,-72,-69,-63,-71,-54,-139,-99,-132,-95,-97,-62,-65,-103,-65,-77,-44,-54,-53,-51,-48,-53,-86,-69,-44,-50,-30,-34,-28,-57,-66,-63,-64,-82,-89,-88,-78,-69,-65,-58,-80,-87,-99,-89,-100,-85,-82,-144,-46
0.10625,-107,-55,-57,-52,-56,-51,-71,-105,-62,-65,-78,-79,-61,-65,-67,-71,-76,-78,-76,-84,-65,-124,-95,-131,-80,-83,-60,-71,-101,-56,-67,-54,-45,-46,-54,-50,-68,-98,-56,-58,-51,-65,-51,-22,-65,-76,-58,-53,-71,-86,-87,-83,-78,-76,-65,-65,-72,-95,-92,-103,-78,-80,-140,-47
0.1125,-79,-24,-30,-30,-40,-40,-69,-73,-29,-36,-56,-60,-48,-58,-33,-37,-46,-54,-55,-68,-52,-111,-69,-99,-70,-71,-36,-50,-84,-45,-50,-31,-21,-23,-31,-27,-50,-90,-39,-45,-35,-37,-39,-45,-44,-65,-32,-25,-44,-54,-59,-59,-53,-58,-50,-36,-44,-68,-74,-84,-55,-66,-136,-37
0.11875,-76,-17,-16,-15,-22,-24,-58,-72,-20,-23,-37,-45,-37,-50,-41,-33,-33,-39,-41,-56,-49,-113,-71,-107,-79,-79,-40,-50,-94,-52,-60,-27,-27,-26,-31,-30,-50,-97,-54,-53,-30,-69,-49,-10,-52,-64,-37,-30,-45,-54,-54,-52,-48,-53,-45,-42,-48,-64,-73,-87,-38,-55,-133,-30
0.125,-88,-29,-26,-23,-25,-25,-66,-82,-29,-33,-42,-45,-42,-67,-48,-40,-43,-48,-45,-59,-53,-129,-92,-121,-93,-93,-58,-64,-102,-65,-78,-49,-46,-43,-47,-42,-58,-113,-73,-62,-50,-67,-62,-14,-78,-64,-59,-46,-56,-65,-60,-60,-53,-59,-49,-63,-63,-70,-77,-97,-50,-64,-138,-49
0.13125,-95,-31,-37,-39,-35,-29,-68,-76,-27,-36,-49,-46,-37,-60,-39,-31,-39,-40,-39,-50,-43,-131,-87,-118,-90,-91,-56,-62,-103,-67,-70,-40,-43,-41,-42,-37,-48,-108,-64,-45,-50,-33,-43,-16,-43,-48,-12,-4,-13,-20,-17,-22,-16,-25,-22,-13,-13,-20,-34,-57,-44,-54,-126,-57
0.1375,-70,-20,-18,-18,-10,-3,-37,-37,-1,-9,-17,-14,-2,-20,10,7,-4,-4,3,-11,-6,-101,-67,-105,-60,-60,-35,-48,-88,-20,-37,-22,-22,-18,-20,-19,-35,-94,2,-21,-7,-1,10,-11,20,-29,41,36,25,18,22,18,19,5,1,36,28,22,4,-16,-3,-5,-80,-16
0.14375,-45,-12,2,8,15,16,-22,-39,6,12,10,9,30,7,24,21,17,21,31,18,22,-91,-55,-96,-45,-48,-18,-37,-80,6,-20,-11,1,2,-6,-4,-30,-74,6,-16,34,-16,54,1,33,-12,45,43,35,33,36,36,34,20,20,56,40,42,21,5,51,53,-19,57
0.15,-42,6,12,9,14,13,-21,-34,5,14,5,-2,20,-1,22,20,17,16,21,7,13,-106,-52,-87,-54,-54,-14,-32,-74,-3,-14,1,13,9,-2,1,-24,-59,8,-17,39,-17,49,2,43,-16,65,59,50,41,40,33,28,12,12,82,60,50,15,-5,88,80,14,108
0.15625,-24,30,35,27,27,21,-22,1,35,38,24,13,16,-11,55,50,40,35,26,8,4,-80,-39,-80,-23,-24,2,-24,-70,9,11,11,32,26,14,16,-16,-50,32,-12,64,-1,54,1,58,-24,82,72,57,44,41,27,18,-2,-8,77,57,44,0,-32,96,72,0,112
0.1625,1,45,47,39,35,28,-17,16,47,41,23,12,21,-6,53,48,37,29,21,6,1,-61,-41,-84,-14,-16,0,-24,-76,15,10,7,25,17,5,7,-22,-51,27,-15,46,-18,27,-2,30,-29,47,45,35,25,25,15,11,-4,-4,39,26,26,-3,-22,70,51,-23,87
0.16875,-33,15,16,15,6,5,-35,-32,12,11,-7,-11,-3,-26,3,10,4,1,-3,-17,-20,-95,-74,-118,-57,-58,-26,-56,-109,-27,-40,-18,-8,-8,-22,-22,-40,-71,-28,-32,-20,-18,-18,-44,-21,-42,-6,-3,-4,-13,-7,-14,-20,-31,-27,-12,-20,-17,-39,-60,18,17,-43,23
0.175,-77,-18,-12,-2,-10,-7,-44,-69,-15,-17,-30,-33,-29,-49,-37,-26,-27,-29,-32,-55,-54,-124,-94,-131,-81,-84,-45,-71,-115,-60,-59,-43,-29,-29,-40,-37,-53,-83,-52,-53,-36,-74,-49,-24,-52,-82,-44,-43,-45,-57,-49,-59,-68,-80,-77,-51,-64,-68,-91,-119,-44,-42,-102,-65
0.18125,-81,-26,-29,-25,-31,-27,-68,-71,-25,-27,-42,-49,-46,-73,-39,-33,-33,-35,-45,-68,-70,-140,-107,-152,-99,-98,-59,-84,-127,-59,-61,-49,-33,-39,-52,-49,-68,-91,-46,-58,-29,-56,-56,-18,-54,-64,-41,-31,-31,-44,-36,-46,-53,-59,-51,-40,-51,-49,-71,-86,-67,-65,-129,-93
0.1875,-69,-18,-21,-29,-35,-36,-65,-53,-12,-17,-39,-45,-45,-57,-29,-21,-25,-30,-39,-58,-55,-137,-93,-137,-92,-91,-55,-79,-115,-45,-66,-51,-30,-35,-51,-51,-71,-87,-30,-53,-25,-24,-52,-28,-41,-68,-29,-32,-35,-51,-49,-59,-63,-69,-69,-47,-54,-62,-86,-107,-62,-65,-131,-91
0.19375,-72,-34,-32,-37,-48,-49,-71,-73,-31,-37,-59,-63,-62,-63,-47,-44,-49,-55,-61,-76,-65,-121,-87,-128,-77,-79,-56,-79,-113,-47,-63,-62,-41,-42,-57,-58,-75,-91,-50,-60,-49,-51,-35,-32,-47,-76,-44,-38,-47,-58,-58,-65,-65,-70,-64,-46,-51,-58,-76,-88,-50,-55,-111,-70
0.2,-92,-47,-40,-49,-53,-54,-74,-86,-36,-39,-52,-59,-68,-61,-41,-38,-44,-51,-56,-72,-58,-121,-105,-150,-74,-77,-70,-95,-135,-52,-77,-64,-50,-51,-65,-68,-87,-98,-55,-63,-33,-51,-29,-26,-32,-62,-26,-15,-26,-38,-40,-50,-52,-58,-51,-17,-23,-41,-66,-87,-35,-41,-98,-59
0.20625,-91,-42,-35,-48,-48,-55,-81,-71,-25,-33,-46,-53,-62,-67,-26,-29,-35,-42,-49,-66,-60,-135,-120,-164,-98,-98,-73,-101,-140,-68,-85,-65,-48,-49,-61,-62,-92,-96,-67,-69,-22,-62,-29,-18,-33,-70,-17,-14,-22,-38,-39,-49,-54,-65,-62,-12,-23,-40,-71,-93,-25,-36,-99,-62
0.2125,-91,-36,-39,-41,-45,-46,-82,-69,-30,-38,-52,-53,-54,-70,-34,-31,-38,-41,-46,-60,-61,-160,-120,-161,-112,-114,-78,-96,-128,-74,-80,-65,-57,-54,-60,-63,-85,-88,-46,-68,-35,-76,-31,-11,-42,-62,-23,-13,-16,-28,-26,-39,-43,-54,-50,-8,-13,-24,-58,-79,-18,-32,-95,-55
0.21875,-97,-54,-49,-41,-42,-34,-73,-66,-27,-32,-42,-40,-36,-54,-26,-15,-23,-26,-27,-45,-41,-183,-131,-167,-136,-135,-83,-99,-129,-86,-105,-71,-73,-62,-64,-71,-80,-84,-59,-60,-43,-46,-48,-10,-34,-45,-13,-4,-5,-13,-10,-22,-25,-37,-31,-1,-8,-15,-42,-65,-9,-25,-80,-40
0.225,-120,-70,-58,-47,-41,-31,-64,-94,-40,-38,-40,-42,-26,-39,-39,-30,-29,-27,-19,-34,-24,-174,-129,-164,-134,-136,-84,-99,-119,-98,-115,-81,-77,-65,-68,-71,-75,-79,-88,-45,-50,-28,-68,-34,-56,-48,-36,-35,-33,-42,-30,-32,-30,-38,-29,-36,-46,-46,-50,-67,-23,-39,-79,-53
0.23125,-130,-79,-61,-50,-44,-40,-66,-114,-64,-55,-48,-47,-33,-45,-69,-64,-54,-47,-33,-45,-35,-163,-119,-156,-123,-126,-82,-99,-116,-97,-96,-75,-66,-58,-67,-69,-81,-79,-77,-50,-44,-35,-73,-21,-72,-55,-61,-56,-53,-60,-42,-39,-32,-37,-33,-65,-68,-62,-55,-60,-62,-68,-93,-86
0.2375,-97,-47,-31,-22,-23,-24,-54,-82,-44,-30,-24,-20,-21,-32,-52,-48,-37,-28,-13,-29,-18,-124,-90,-137,-92,-93,-43,-68,-98,-67,-64,-34,-18,-15,-25,-26,-50,-48,-35,-31,-48,-7,-65,-2,-50,-39,-41,-33,-32,-38,-24,-25,-17,-21,-19,-53,-53,-52,-43,-44,-79,-76,-91,-91
0.24375,-67,-15,-1,3,-4,-5,-42,-64,-19,-16,-21,-17,-18,-34,-27,-34,-30,-31,-18,-39,-29,-103,-79,-126,-68,-68,-31,-63,-102,-67,-66,-36,-19,-15,-26,-30,-61,-58,-55,-51,-53,-55,-47,-15,-39,-59,-33,-41,-44,-58,-50,-58,-48,-54,-48,-58,-66,-76,-79,-86,-78,-82,-105,-87
0.25,-94,-37,-22,-16,-23,-23,-64,-88,-35,-31,-37,-30,-33,-55,-53,-46,-42,-43,-34,-54,-46,-112,-89,-135,-86,-83,-48,-82,-119,-58,-68,-48,-34,-31,-43,-46,-75,-81,-48,-63,-20,-43,-29,-23,-27,-57,-31,-41,-42,-54,-43,-50,-41,-50,-44,-52,-60,-64,-68,-73,-67,-74,-106,-68
0.25625,-83,-33,-24,-21,-27,-25,-63,-77,-27,-29,-37,-37,-31,-45,-46,-46,-39,-41,-33,-49,-43,-135,-97,-139,-90,-90,-62,-90,-121,-56,-78,-64,-48,-45,-58,-58,-81,-92,-47,-62,-22,-46,-46,-25,-50,-63,-51,-53,-60,-66,-51,-51,-45,-51,-39,-64,-72,-70,-60,-52,-62,-59,-87,-46
0.2625,-104,-55,-50,-45,-47,-49,-78,-99,-54,-53,-56,-63,-47,-62,-64,-67,-59,-60,-50,-64,-54,-153,-114,-148,-99,-99,-76,-96,-124,-84,-109,-80,-65,-61,-71,-74,-93,-100,-75,-69,-63,-81,-62,-25,-61,-52,-57,-60,-67,-70,-54,-46,-40,-39,-16,-64,-73,-63,-42,-28,-63,-46,-62,-24
0.26875,-121,-66,-54,-49,-49,-52,-87,-106,-58,-49,-48,-61,-46,-65,-64,-66,-52,-51,-41,-53,-44,-143,-116,-159,-110,-109,-76,-105,-131,-93,-114,-76,-56,-55,-68,-72,-95,-101,-77,-67,-55,-63,-55,-54,-46,-47,-43,-45,-46,-52,-37,-29,-21,-24,-5,-50,-61,-50,-23,-18,-58,-33,-40,-13
0.275,-101,-43,-32,-25,-35,-40,-69,-82,-33,-26,-27,-39,-32,-44,-43,-41,-34,-30,-25,-33,-30,-149,-108,-155,-111,-109,-65,-98,-123,-90,-100,-65,-41,-39,-54,-55,-76,-86,-70,-47,-47,-12,-49,-29,-51,-53,-40,-36,-35,-41,-32,-25,-15,-26,-21,-40,-50,-45,-27,-34,-46,-30,-43,-20
0.28125,-106,-44,-34,-26,-39,-43,-63,-93,-34,-32,-33,-49,-41,-42,-48,-39,-37,-37,-31,-35,-30,-159,-112,-154,-118,-115,-70,-100,-131,-93,-116,-66,-46,-46,-59,-61,-75,-81,-69,-50,-45,-32,-40,-12,-51,-46,-26,-22,-21,-31,-24,-19,-11,-18,-16,-18,-24,-31,-16,-27,-29,-22,-54,-16
0.2875,-94,-35,-31,-30,-34,-42,-62,-66,-20,-22,-34,-53,-40,-39,-26,-20,-25,-34,-27,-34,-25,-115,-105,-149,-90,-91,-66,-98,-129,-70,-100,-61,-43,-46,-58,-58,-81,-79,-36,-58,-35,-67,-62,-18,-48,-44,-23,-18,-18,-41,-34,-37,-31,-34,-29,-30,-37,-58,-44,-58,-22,-25,-69,-22
0.29375,-92,-45,-45,-48,-50,-58,-83,-83,-39,-43,-54,-72,-58,-69,-46,-43,-49,-59,-54,-64,-56,-157,-128,-164,-113,-112,-90,-119,-144,-93,-122,-87,-69,-68,-78,-81,-109,-103,-82,-77,-71,-67,-63,-25,-60,-66,-45,-47,-47,-69,-65,-72,-66,-67,-62,-54,-61,-85,-81,-96,-44,-56,-102,-48
0.3,-125,-64,-56,-45,-50,-55,-92,-116,-52,-50,-54,-64,-53,-66,-56,-48,-49,-54,-51,-61,-52,-170,-127,-167,-122,-121,-81,-110,-144,-97,-115,-71,-59,-53,-63,-68,-91,-97,-86,-67,-58,-44,-48,-34,-43,-53,-20,-31,-35,-48,-39,-48,-43,-43,-35,-36,-42,-59,-58,-68,-52,-69,-118,-45
0.30625,-101,-41,-36,-20,-18,-19,-59,-83,-28,-26,-28,-23,-18,-36,-24,-23,-24,-27,-21,-28,-24,-117,-89,-135,-81,-80,-40,-68,-110,-62,-89,-35,-23,-17,-22,-24,-43,-61,-45,-45,-37,-54,-31,-23,-30,-33,-4,-3,-11,-21,-15,-25,-21,-29,-20,-2,-12,-32,-37,-50,-29,-44,-91,-7
0.3125,-73,-10,-8,6,10,11,-33,-63,-5,-7,-14,-6,1,-29,-7,-8,-10,-17,-7,-17,-18,-108,-73,-114,-68,-66,-20,-46,-86,-63,-92,-20,-10,-4,-6,-11,-27,-49,-56,-38,-40,-42,-32,-17,-23,-32,0,6,1,-8,-4,-11,-10,-21,-18,15,3,-9,-21,-32,10,2,-34,43
0.31875,-88,-14,-9,7,14,11,-34,-76,-14,-14,-21,-8,-4,-30,-24,-19,-15,-24,-14,-25,-23,-119,-89,-121,-96,-93,-33,-54,-88,-91,-116,-34,-27,-19,-21,-27,-40,-65,-72,-45,-36,-43,-45,-30,-33,-48,-16,-13,-18,-30,-26,-30,-27,-38,-38,-13,-21,-33,-42,-52,10,6,-15,24
0.325,-106,-39,-32,-16,-12,-14,-52,-85,-28,-34,-41,-38,-26,-44,-29,-26,-30,-40,-32,-39,-35,-117,-97,-138,-97,-99,-52,-74,-108,-87,-118,-56,-43,-34,-38,-42,-59,-82,-63,-49,-30,-45,-49,-26,-44,-51,-18,-11,-13,-30,-27,-32,-33,-44,-39,-11,-16,-28,-43,-59,-5,-8,-21,-1
0.33125,-93,-33,-35,-29,-30,-30,-61,-72,-15,-31,-44,-54,-39,-53,-18,-17,-30,-45,-43,-51,-45,-136,-91,-137,-102,-102,-63,-84,-109,-83,-119,-60,-44,-43,-48,-50,-64,-83,-77,-51,-48,-45,-43,-31,-30,-59,-3,2,-3,-26,-25,-35,-41,-56,-57,0,-7,-29,-56,-92,-14,-23,-42,-4
0.3375,-84,-15,-23,-25,-27,-25,-57,-46,1,-22,-43,-50,-39,-44,1,-5,-19,-42,-41,-49,-40,-121,-82,-133,-80,-80,-44,-68,-101,-52,-89,-40,-17,-20,-29,-26,-48,-73,-20,-37,-6,-4,-8,-31,-11,-55,16,20,9,-14,-14,-23,-27,-42,-46,14,6,-16,-42,-74,-8,-20,-46,12
0.34375,-49,-4,-2,6,-1,-2,-34,-37,8,-6,-22,-28,-16,-19,17,8,-5,-24,-18,-29,-20,-77,-58,-97,-48,-49,-18,-42,-73,-34,-61,-21,-1,-1,-9,-8,-29,-62,-5,-19,-2,3,-12,-22,-3,-48,30,17,4,-14,-11,-14,-15,-29,-31,11,-2,-20,-33,-60,5,-7,-35,34
0.35,-55,-10,-8,12,7,1,-32,-62,-6,-14,-26,-22,-10,-20,-4,-7,-16,-28,-19,-26,-18,-80,-47,-82,-41,-43,-12,-32,-52,-36,-52,-11,1,1,-3,-5,-21,-59,-24,-22,-16,-26,-3,-15,1,-35,11,2,-5,-17,-12,-15,-14,-25,-19,-6,-15,-27,-39,-62,2,-8,-33,34
0.35625,-56,-1,4,14,12,-1,-32,-63,-1,-2,-13,-7,-8,-21,-11,-3,-5,-14,-11,-17,-17,-56,-33,-77,-33,-32,2,-24,-47,-15,-39,-5,17,13,4,5,-22,-59,-8,-28,-10,-70,17,-7,-18,-30,-10,-3,-3,-13,-4,-17,-18,-27,-14,-8,-16,-28,-44,-64,-11,-18,-46,21
0.3625,-45,9,14,18,18,-1,-38,-51,10,12,2,-8,-10,-32,-3,7,7,-4,-3,-15,-17,-46,-26,-73,-50,-49,-4,-30,-56,-17,-59,-11,6,4,-2,-4,-28,-59,-18,-26,-17,-44,14,-27,-10,-24,-5,-2,-9,-15,-4,-16,-14,-22,-12,-13,-24,-30,-40,-50,-20,-24,-50,16
0.36875,-63,-16,-15,-4,5,-5,-36,-70,-10,-12,-20,-32,-15,-30,-15,-12,-12,-22,-16,-27,-21,-93,-54,-91,-72,-72,-34,-44,-71,-33,-91,-26,-22,-25,-24,-24,-34,-65,-32,-27,-17,-37,9,-5,-37,-37,-18,-17,-24,-30,-24,-31,-29,-33,-28,-24,-33,-42,-45,-54,-23,-28,-49,22
0.375,-64,-19,-17,-4,-3,-9,-41,-70,-13,-17,-22,-26,-14,-27,-17,-16,-18,-25,-18,-26,-22,-81,-52,-82,-51,-52,-33,-44,-60,-18,-72,-25,-9,-14,-18,-14,-32,-59,-3,-28,-6,-30,15,4,-19,-37,-11,-17,-23,-24,-16,-18,-17,-24,-19,-16,-26,-27,-27,-38,-22,-22,-37,34
0.38125,-35,6,11,24,24,21,-19,-44,15,14,11,2,18,1,0,7,8,1,11,2,2,-37,-18,-56,-9,-11,-2,-15,-28,21,-18,13,22,17,15,17,-3,-23,24,-5,41,-5,44,-10,22,-23,24,19,8,7,14,9,7,-1,1,19,4,-2,-4,-14,-2,7,-10,54
0.3875,4,51,46,49,51,49,7,-8,51,42,36,24,32,12,27,25,27,16,23,5,2,-7,7,-33,12,12,26,15,-9,45,1,42,51,42,37,42,18,-24,40,4,41,18,30,-15,13,-33,24,16,5,1,7,-5,-7,-19,-16,16,-4,-15,-26,-40,14,20,-6,51
0.39375,1,46,41,44,48,44,6,-28,33,31,33,18,16,-3,10,7,14,7,10,-12,-14,-18,-6,-48,-10,-11,9,-2,-29,11,-39,14,20,14,15,17,1,-41,17,-16,8,-33,25,-15,8,-32,20,3,-8,-14,-6,-13,-13,-18,-12,20,-2,-16,-26,-30,22,17,-14,42
0.4,-48,-3,-8,-6,8,11,-22,-65,1,-4,-9,-16,-5,-15,-5,-10,-7,-14,-11,-22,-15,-71,-41,-82,-44,-44,-31,-38,-59,-5,-72,-17,-18,-27,-23,-18,-23,-67,-10,-23,1,-25,35,-8,10,-14,30,10,-6,-11,-1,-5,-3,-3,11,33,13,-3,-10,-10,26,17,-15,46
0.40625,-62,-12,-17,-25,-7,6,-14,-67,-4,-6,-13,-21,-4,5,-3,-7,-5,-14,-6,-16,-2,-81,-52,-90,-62,-61,-39,-43,-59,-23,-78,-26,-20,-30,-29,-19,-16,-63,-32,-5,-4,3,14,-8,-5,-20,15,3,-15,-21,-11,-15,-15,-15,-7,25,-1,-20,-27,-37,25,18,-18,50
0.4125,-58,-8,-18,-18,-8,3,-14,-71,-14,-16,-21,-21,-13,-5,-21,-30,-23,-30,-20,-32,-17,-59,-40,-73,-37,-39,-23,-27,-39,-22,-68,-17,-11,-16,-16,-9,-5,-50,-29,-4,-19,-16,17,-1,-12,-22,-1,-9,-24,-31,-16,-15,-7,-10,-1,6,-12,-26,-18,-18,11,11,-17,39
4.19375,5,26,21,-8,-13,-27,-15,23,32,26,20,14,-23,-17,23,27,18,12,2,-21,-27,-89,-79,-92,-61,-56,-37,-51,-98,-9,-29,-9,-14,-23,-32,-29,-12,8,10,-40,-21,-11,21,-4,-8,-29,12,27,20,26,17,5,-12,-20,-24,27,29,14,-4,-23,10,-3,-8,-13
4.2,-24,-8,-4,-26,-22,-29,-15,-8,13,12,12,19,-12,-12,18,20,14,11,8,-8,-20,-103,-98,-125,-84,-79,-60,-75,-125,-30,-57,-23,-34,-44,-50,-45,-21,3,-26,-29,-23,15,17,-1,1,-13,25,32,22,32,25,16,-1,-4,-11,44,39,23,11,-6,26,11,-12,-9
4.20625,-28,-11,-12,-35,-27,-33,-13,-10,2,2,1,16,-18,-7,0,9,4,-3,-2,-16,-22,-136,-108,-132,-84,-82,-67,-81,-131,-39,-49,-35,-42,-53,-60,-53,-32,-1,-21,-35,-5,-39,15,-2,2,-16,20,12,-5,0,-6,-13,-29,-25,-25,13,7,-13,-15,-23,17,4,-20,-2
4.2125,-33,-29,-37,-65,-58,-60,-31,-26,-22,-27,-32,-15,-52,-31,-20,-20,-30,-41,-34,-48,-45,-140,-118,-132,-98,-94,-74,-81,-129,-53,-51,-42,-54,-63,-69,-62,-29,0,-37,-35,-29,-13,1,-10,-22,-18,-15,-13,-26,-21,-24,-29,-38,-31,-26,-12,-14,-29,-27,-25,-16,-18,-32,-5
4.21875,-36,-22,-23,-51,-41,-43,-14,-27,-20,-15,-13,3,-35,-14,-20,-20,-24,-26,-17,-32,-27,-93,-76,-97,-73,-67,-34,-44,-91,-33,-39,0,-9,-19,-28,-24,4,21,-22,-16,-16,3,10,-20,-15,-11,-15,-8,-14,-8,-11,-14,-20,-15,-12,-14,-14,-27,-17,-14,-40,-35,-32,-13
4.225,-16,12,16,-12,-3,-14,2,-8,-2,11,12,23,-17,-8,-13,-6,-9,-9,-6,-22,-25,-100,-60,-84,-74,-67,-21,-35,-88,-24,-48,4,3,-7,-15,-13,-2,11,-13,-32,2,-50,8,26,-24,-40,-24,-15,-18,-11,-9,-12,-18,-17,-20,-24,-23,-23,-6,-2,-49,-40,-25,-22
4.23125,-20,0,2,-26,-10,-17,-5,-5,-2,8,11,20,-9,-6,-12,4,-2,1,8,-9,-14,-108,-77,-102,-77,-72,-32,-41,-97,-27,-43,4,-15,-18,-20,-16,10,18,-8,-17,-11,2,-6,16,-26,-1,-10,5,3,20,21,18,12,8,-2,-2,2,6,18,18,-31,-21,-15,-22
4.2375,-14,-4,1,-22,-2,-3,15,0,1,10,16,29,7,15,-4,8,3,2,12,-1,-4,-92,-77,-99,-61,-56,-29,-38,-91,-21,-35,3,-13,-14,-17,-14,11,26,-22,-9,-47,10,-3,6,-25,-6,-25,-12,-16,2,4,-1,-11,-12,-21,-31,-22,-14,-11,-12,-32,-23,-32,-45
4.24375,-27,-5,5,-10,2,-4,10,-26,-10,8,14,24,-1,5,-19,-4,-4,-3,4,-11,-15,-101,-71,-90,-59,-53,-16,-34,-84,-17,-29,9,3,2,-4,-5,8,19,-26,-12,-18,15,5,8,-21,-17,-24,-6,-4,16,14,8,-5,-11,-17,-14,-2,8,0,-3,-30,-15,-37,-38
4.25,-15,14,20,3,9,5,14,-11,8,25,30,35,10,15,-8,15,13,17,20,2,-7,-111,-71,-84,-67,-60,-6,-24,-78,-8,-21,23,11,11,7,2,19,21,-12,-5,-13,49,26,-6,-8,-18,-8,3,3,22,17,7,-8,-15,-28,-7,-1,-1,-14,-31,-22,-7,-41,-28
4.25625,-8,5,17,3,7,4,18,-17,3,16,20,27,5,15,-15,2,0,-1,3,-10,-16,-86,-63,-88,-54,-50,1,-22,-75,-3,-20,20,15,16,11,6,25,34,-11,-8,-14,-10,18,-32,-21,-34,-25,-13,-17,-1,-8,-20,-30,-33,-41,-18,-9,-21,-30,-42,-23,-16,-56,-32
4.2625,-7,10,20,-1,4,2,12,-11,7,9,4,11,-5,-2,-6,6,-4,-11,-8,-16,-22,-78,-52,-71,-48,-43,-1,-16,-64,-4,-26,16,12,7,1,-2,22,38,-16,-17,-17,-40,10,2,-17,-22,-8,0,-7,4,-9,-17,-27,-25,-29,-13,0,-18,-25,-34,-23,-20,-60,-33
4.26875,-19,-3,-2,-32,-23,-22,-7,-20,-5,-10,-20,-10,-16,-12,-16,-8,-14,-24,-20,-23,-26,-116,-87,-103,-73,-69,-33,-47,-96,-32,-43,-8,-7,-20,-30,-28,-5,15,-22,-31,-11,-12,-3,8,-28,-25,-28,-19,-24,-15,-19,-26,-36,-33,-35,-33,-24,-35,-37,-45,-36,-32,-67,-54
4.275,-17,-10,-6,-30,-21,-23,-7,-18,-14,-13,-17,-11,-15,-4,-30,-16,-21,-24,-18,-26,-26,-108,-79,-95,-69,-63,-22,-42,-93,-21,-44,-3,2,0,-14,-16,0,18,-12,-29,-18,-13,-12,-5,-26,-40,-37,-21,-28,-23,-27,-41,-50,-48,-52,-28,-23,-48,-52,-65,-50,-50,-80,-73
4.28125,-16,-1,4,-16,-9,-18,-6,-11,-4,-7,-11,-8,-18,-16,-17,-14,-22,-24,-23,-34,-35,-96,-64,-83,-64,-57,-8,-30,-80,-25,-56,9,8,8,-4,-12,5,16,-26,-26,-13,-16,12,2,-23,-37,-32,-24,-31,-32,-31,-43,-49,-45,-49,-33,-32,-56,-50,-58,-54,-55,-78,-73
4.2875,-15,3,10,-14,-4,-12,1,-10,-2,-7,-15,-7,-10,-5,-24,-23,-28,-25,-20,-25,-22,-85,-57,-75,-63,-56,8,-23,-72,-15,-33,22,26,23,11,4,20,24,-4,-8,-4,17,11,4,-25,-27,-36,-35,-43,-39,-37,-39,-41,-31,-38,-49,-48,-64,-43,-46,-63,-61,-67,-77
4.29375,5,12,21,-4,5,-5,9,-9,-6,-12,-16,-5,-8,1,-32,-36,-39,-36,-26,-33,-24,-72,-49,-68,-46,-40,11,-22,-71,-5,-23,17,25,24,8,3,15,18,-40,-12,-37,-7,23,-3,-31,-29,-35,-40,-50,-44,-49,-48,-50,-41,-46,-35,-40,-59,-50,-62,-67,-67,-69,-85
4.3,-16,-4,3,-21,-14,-21,-3,-31,-31,-33,-32,-24,-26,-16,-41,-44,-46,-49,-39,-46,-37,-80,-52,-73,-43,-39,0,-29,-72,3,-23,13,12,12,-2,-8,6,16,-7,-10,-16,24,25,-37,-19,-32,-19,-28,-41,-35,-43,-44,-49,-43,-47,-25,-27,-50,-47,-61,-52,-60,-71,-79
4.30625,-13,-12,1,-17,-10,-14,5,-22,-29,-27,-27,-21,-19,-2,-26,-31,-37,-39,-32,-37,-30,-82,-51,-78,-39,-33,4,-29,-77,-3,-21,14,21,19,5,-2,8,22,-5,-3,-10,22,29,-15,-14,-42,-17,-23,-35,-33,-41,-48,-56,-54,-62,-25,-27,-54,-61,-80,-37,-55,-80,-73
4.3125,-13,1,8,-6,0,-11,2,-21,-15,-17,-21,-8,-15,-8,-27,-26,-35,-39,-33,-40,-39,-81,-52,-77,-56,-50,3,-28,-80,-21,-35,14,19,17,6,-3,7,20,-25,-21,-21,-48,14,6,-29,-43,-29,-25,-32,-38,-46,-55,-62,-60,-62,-24,-31,-61,-66,-82,-37,-54,-89,-72
4.31875,-25,-2,9,-8,2,-8,-1,-27,-16,-14,-17,-14,-23,-25,-36,-31,-37,-45,-41,-50,-54,-81,-60,-85,-71,-64,-4,-31,-89,-35,-41,17,15,16,8,-3,5,7,-37,-25,-25,-44,-7,-1,-27,-46,-30,-29,-42,-49,-56,-67,-73,-71,-70,-35,-42,-78,-77,-93,-52,-65,-98,-82
4.325,-24,2,19,9,11,-5,-4,-25,-14,-7,-8,-20,-29,-36,-36,-32,-36,-49,-45,-57,-62,-97,-66,-89,-69,-61,-2,-33,-90,-26,-50,10,22,22,8,-3,3,7,-27,-27,-22,-29,0,-4,-53,-49,-52,-43,-58,-61,-68,-73,-77,-73,-69,-59,-60,-91,-81,-93,-72,-85,-110,-105
4.33125,-17,-2,7,1,-4,-20,-12,-25,-27,-19,-25,-25,-35,-32,-43,-39,-45,-53,-46,-58,-56,-115,-77,-95,-72,-67,-16,-41,-97,-28,-58,2,6,1,-12,-18,-1,16,-18,-24,-37,-6,-7,-8,-40,-33,-46,-40,-49,-51,-55,-59,-62,-58,-53,-53,-52,-76,-64,-80,-79,-89,-112,-111
4.3375,-25,-7,-3,-26,-23,-30,-12,-25,-19,-12,-18,-26,-31,-23,-25,-19,-29,-33,-30,-43,-42,-114,-84,-103,-78,-74,-31,-48,-101,-42,-67,-7,-6,-15,-25,-28,-10,9,-38,-30,-42,-20,3,-3,-32,-23,-35,-29,-34,-30,-30,-37,-44,-42,-36,-45,-42,-55,-47,-59,-65,-69,-97,-84
4.34375,-38,-15,-9,-37,-28,-35,-24,-34,-22,-12,-16,-18,-23,-27,-42,-30,-31,-32,-24,-34,-37,-130,-99,-116,-95,-89,-49,-65,-108,-46,-91,-30,-25,-31,-41,-45,-28,-11,-49,-40,-40,-33,-14,-5,-49,-35,-55,-54,-58,-48,-46,-43,-51,-50,-48,-64,-63,-62,-50,-61,-59,-49,-82,-60
4.35,-41,-32,-30,-42,-36,-42,-30,-49,-47,-40,-40,-31,-33,-33,-59,-56,-53,-54,-34,-39,-41,-121,-89,-105,-81,-76,-39,-58,-101,-32,-74,-17,-14,-21,-33,-37,-18,-8,-39,-27,-23,17,-13,-16,-43,-27,-39,-40,-42,-34,-30,-21,-28,-26,-30,-39,-41,-34,-21,-31,-42,-22,-52,-24
4.35625,-39,-25,-17,-29,-25,-29,-4,-36,-40,-31,-30,-13,-21,1,-46,-44,-43,-41,-21,-24,-23,-117,-92,-111,-76,-71,-40,-59,-107,-42,-79,-24,-19,-27,-37,-41,-17,-1,-46,-20,-53,28,-21,-26,-65,-43,-63,-53,-47,-42,-41,-37,-51,-51,-52,-59,-59,-59,-49,-73,-42,-34,-57,-58
4.3625,-59,-57,-42,-52,-52,-59,-31,-64,-66,-58,-58,-39,-57,-42,-71,-69,-65,-67,-53,-62,-68,-136,-119,-139,-105,-101,-71,-88,-133,-73,-105,-54,-53,-58,-67,-72,-42,-23,-82,-56,-78,-66,-27,-11,-79,-61,-82,-73,-67,-59,-63,-54,-73,-68,-64,-79,-73,-64,-51,-68,-58,-55,-78,-87
4.36875,-99,-91,-77,-84,-83,-83,-62,-100,-97,-88,-86,-73,-90,-80,-90,-91,-92,-93,-80,-90,-93,-137,-120,-139,-122,-119,-84,-95,-139,-89,-121,-67,-71,-75,-81,-84,-49,-30,-79,-63,-50,-67,-33,-20,-84,-69,-79,-78,-76,-70,-80,-67,-82,-74,-67,-72,-72,-71,-56,-66,-69,-65,-92,-83
4.375,-78,-82,-76,-90,-80,-74,-50,-74,-90,-86,-83,-74,-91,-76,-79,-90,-95,-98,-91,-100,-97,-124,-91,-103,-95,-91,-69,-73,-111,-61,-90,-60,-60,-65,-69,-70,-30,-15,-58,-52,-73,-60,-29,-35,-92,-78,-81,-78,-85,-78,-90,-80,-95,-87,-79,-65,-70,-82,-68,-68,-65,-66,-96,-65
4.38125,-66,-73,-64,-82,-70,-74,-51,-77,-87,-81,-78,-77,-92,-88,-91,-93,-95,-97,-96,-108,-112,-121,-95,-111,-83,-79,-61,-70,-115,-64,-77,-46,-49,-53,-58,-63,-31,-23,-76,-60,-99,-73,-20,-58,-86,-80,-82,-84,-88,-77,-88,-82,-95,-89,-81,-74,-79,-86,-70,-64,-63,-62,-84,-51
4.3875,-81,-72,-58,-71,-58,-65,-49,-96,-91,-78,-70,-69,-83,-86,-103,-101,-95,-95,-88,-101,-108,-132,-97,-108,-109,-104,-63,-68,-110,-70,-77,-41,-45,-51,-52,-55,-20,-15,-79,-53,-77,-63,-21,-52,-78,-78,-89,-91,-91,-74,-76,-72,-86,-82,-77,-89,-87,-83,-63,-58,-73,-66,-75,-52
4.39375,-58,-42,-29,-41,-29,-40,-33,-54,-50,-34,-25,-27,-53,-67,-67,-59,-51,-51,-46,-64,-82,-103,-79,-102,-69,-67,-43,-61,-119,-17,-35,-14,-8,-16,-26,-25,-16,-46,-15,-66,-19,-47,27,-27,-30,-61,-35,-32,-26,-8,-11,-15,-31,-33,-26,-29,-21,-17,-3,6,-54,-36,-39,-21
4.4,3,10,24,14,18,-2,-18,4,7,23,29,24,-11,-27,-5,-2,7,1,1,-22,-43,-131,-101,-135,-74,-69,-39,-67,-145,-19,-37,-2,-8,-10,-19,-24,-12,-48,-21,-51,-17,-2,26,-35,-15,-58,-21,-25,-26,-13,-18,-23,-37,-41,-35,-46,-43,-42,-21,-15,-31,-11,-10,6
4.40625,-50,-45,-30,-29,-13,-19,-6,-55,-51,-32,-20,-14,-33,-23,-64,-61,-51,-55,-51,-64,-68,-152,-117,-114,-120,-117,-75,-60,-85,-74,-84,-39,-61,-60,-49,-49,12,23,-82,-15,-67,-14,-32,-29,-85,-82,-101,-88,-90,-69,-68,-64,-72,-71,-70,-103,-91,-84,-50,-44,-60,-43,-40,-29
4.4125,-61,-46,-36,-37,-20,-18,5,-47,-46,-25,-16,-11,-26,-24,-63,-47,-41,-40,-30,-44,-56,-87,-60,-59,-79,-76,-39,-21,-33,-60,-48,-7,-19,-22,-16,-15,37,59,-70,-4,-64,-44,-29,-15,-67,-45,-65,-40,-37,-15,-16,-13,-22,-26,-30,-47,-31,-28,2,-3,-71,-55,-56,-51
4.41875,-35,-5,15,15,26,9,25,-8,2,23,29,39,10,-6,-12,2,7,5,19,-3,-28,-81,-37,-31,-87,-81,-10,7,-2,-60,-49,12,-5,0,5,-3,60,91,-37,20,-48,-11,-24,1,-45,-33,-44,-23,-17,8,4,6,-5,-17,-30,-36,-24,-15,4,-15,-51,-39,-52,-53
4.425,-63,-41,-10,4,17,9,34,-52,-26,1,15,29,13,7,-54,-21,-3,0,18,1,-21,-122,-62,-44,-150,-142,-43,-7,0,-133,-105,-22,-48,-33,-21,-27,49,82,-100,20,-86,-2,-53,-7,-88,-37,-70,-38,-17,13,12,12,-3,-17,-34,-39,-17,-1,7,-13,-30,-23,-49,-58
4.43125,-89,-52,-27,-11,5,-2,21,-54,-25,2,21,26,16,11,-44,-12,10,15,31,11,-12,-139,-96,-96,-169,-163,-64,-41,-53,-153,-110,-33,-57,-45,-36,-40,24,44,-110,6,-85,1,-70,-22,-62,-32,-39,-12,5,28,26,22,5,-8,-17,-7,7,10,16,3,-7,-6,-38,-39
4.4375,-73,-41,-23,-15,6,-6,18,-32,-13,6,22,24,14,8,-22,-5,11,13,27,7,-17,-127,-81,-79,-133,-129,-57,-29,-44,-101,-96,-27,-51,-37,-29,-28,37,48,-68,7,-61,-3,-26,-17,-39,-43,-8,0,4,17,11,6,-11,-20,-26,7,8,-6,4,5,6,5,-28,-6
4.44375,-52,-38,-17,-11,10,-1,20,-21,-12,1,18,15,7,-4,-14,-11,-2,-1,11,-8,-31,-95,-58,-57,-102,-99,-41,-13,-28,-73,-71,-22,-40,-30,-21,-19,40,62,-44,6,-50,-14,-11,-36,-26,-40,4,-1,-7,1,-8,-7,-18,-19,-21,16,5,-17,-1,16,12,7,-16,19
4.45,-49,-41,-29,-32,-8,-11,12,-29,-27,-18,-4,-7,-11,-12,-30,-32,-29,-31,-16,-33,-41,-108,-78,-77,-117,-114,-63,-39,-40,-90,-90,-45,-67,-62,-53,-51,14,52,-74,-8,-61,-22,-29,-29,-51,-46,-34,-37,-48,-40,-52,-48,-52,-44,-39,-12,-31,-61,-33,-11,-2,-12,-27,6
4.45625,-79,-74,-66,-78,-50,-46,-15,-65,-62,-54,-47,-38,-48,-39,-66,-62,-63,-68,-55,-65,-64,-113,-80,-77,-125,-122,-77,-50,-46,-103,-104,-65,-79,-76,-68,-60,9,36,-86,-16,-69,-11,-32,-17,-82,-67,-57,-61,-71,-62,-69,-59,-60,-46,-40,-25,-47,-70,-28,5,-18,-32,-43,-12
4.4625,-82,-75,-65,-77,-55,-45,-7,-74,-73,-66,-57,-35,-49,-30,-84,-79,-79,-79,-63,-71,-60,-90,-64,-65,-117,-112,-65,-39,-44,-110,-105,-64,-77,-72,-65,-61,11,39,-108,-11,-115,-37,-52,-25,-95,-55,-73,-80,-91,-76,-79,-61,-64,-46,-31,-39,-61,-72,-31,2,-31,-44,-51,-29
4.46875,-115,-105,-85,-84,-63,-53,-17,-119,-106,-87,-66,-53,-61,-49,-120,-109,-98,-92,-74,-86,-77,-108,-78,-72,-142,-136,-81,-50,-49,-130,-124,-79,-99,-92,-81,-79,-2,26,-138,-29,-149,-77,-63,-26,-119,-70,-99,-109,-108,-95,-92,-75,-81,-64,-44,-76,-90,-89,-46,-13,-55,-63,-60,-68
4.475,-130,-116,-96,-92,-77,-68,-30,-126,-113,-93,-71,-64,-80,-73,-136,-118,-106,-98,-86,-99,-93,-152,-106,-90,-154,-149,-95,-59,-56,-136,-127,-87,-102,-93,-83,-75,1,39,-122,-15,-114,-40,-83,-63,-124,-69,-103,-111,-107,-92,-90,-74,-80,-64,-49,-80,-90,-82,-40,1,-74,-72,-65,-90
4.48125,-105,-93,-73,-67,-59,-53,-11,-97,-90,-71,-52,-53,-67,-52,-112,-97,-88,-80,-72,-87,-80,-139,-107,-99,-142,-141,-88,-55,-62,-126,-119,-74,-93,-83,-71,-69,4,43,-115,-9,-111,-25,-83,-51,-109,-66,-82,-90,-84,-69,-69,-59,-74,-60,-48,-56,-66,-63,-34,1,-65,-56,-56,-65
4.4875,-115,-103,-85,-80,-69,-70,-27,-103,-97,-83,-64,-70,-78,-62,-111,-99,-90,-86,-79,-94,-89,-152,-115,-111,-162,-158,-100,-67,-70,-131,-134,-89,-103,-95,-86,-79,-13,20,-117,-31,-112,-60,-62,-33,-109,-71,-78,-78,-69,-58,-61,-54,-69,-57,-41,-44,-51,-50,-29,7,-40,-33,-40,-24
4.49375,-92,-83,-74,-73,-62,-68,-34,-65,-70,-71,-54,-62,-71,-60,-76,-76,-74,-74,-67,-80,-79,-140,-103,-106,-140,-137,-93,-68,-81,-116,-114,-87,-93,-89,-81,-76,-20,18,-96,-29,-80,-64,-67,-35,-102,-65,-78,-77,-70,-55,-60,-51,-61,-47,-25,-45,-53,-49,-20,27,-23,-18,-25,1
4.5,-83,-90,-85,-74,-69,-71,-42,-77,-87,-84,-68,-60,-76,-54,-106,-92,-85,-83,-70,-80,-73,-165,-131,-130,-154,-151,-109,-88,-103,-123,-112,-98,-109,-108,-98,-93,-33,16,-119,-33,-135,-45,-86,-35,-107,-66,-89,-89,-80,-59,-63,-48,-58,-37,-13,-43,-57,-49,-13,39,-18,-13,-5,12
4.50625,-118,-118,-108,-103,-97,-87,-54,-121,-112,-106,-93,-74,-82,-54,-125,-109,-103,-99,-80,-83,-71,-164,-138,-138,-163,-161,-119,-98,-102,-135,-140,-109,-117,-116,-107,-97,-42,8,-133,-28,-122,-14,-73,-49,-111,-51,-95,-95,-90,-72,-68,-52,-57,-39,-21,-55,-70,-62,-18,20,-35,-32,-15,-20
4.5125,-116,-108,-91,-91,-81,-70,-37,-103,-95,-89,-77,-61,-61,-36,-108,-98,-91,-89,-64,-64,-58,-153,-118,-116,-150,-146,-100,-76,-80,-119,-121,-85,-93,-90,-81,-77,-21,17,-119,-13,-113,-16,-67,-58,-96,-46,-70,-76,-69,-56,-51,-34,-41,-24,-10,-46,-58,-43,2,41,-44,-47,-33,-43
4.51875,-93,-90,-72,-67,-56,-50,-20,-87,-84,-76,-64,-40,-50,-36,-89,-85,-79,-70,-47,-51,-54,-129,-108,-110,-133,-130,-83,-58,-69,-103,-97,-65,-77,-76,-67,-60,2,33,-105,-7,-95,-34,-60,-22,-89,-33,-64,-75,-69,-53,-47,-30,-39,-22,-6,-52,-63,-41,3,39,-40,-41,-31,-27
4.525,-96,-91,-74,-64,-50,-42,-13,-92,-95,-82,-68,-37,-51,-38,-103,-98,-93,-79,-59,-64,-64,-145,-111,-116,-139,-135,-83,-58,-72,-114,-108,-70,-79,-72,-62,-58,7,38,-110,-3,-108,-7,-68,-33,-119,-46,-95,-85,-82,-63,-61,-47,-55,-41,-26,-53,-62,-49,-19,7,-38,-38,-35,-15
4.53125,-95,-86,-65,-51,-32,-26,5,-83,-87,-75,-55,-26,-42,-25,-93,-89,-80,-71,-54,-57,-58,-131,-89,-78,-128,-125,-54,-25,-33,-109,-91,-39,-51,-41,-31,-30,36,68,-104,10,-106,-14,-65,-25,-106,-39,-69,-56,-52,-39,-42,-31,-41,-30,-21,-22,-33,-32,-5,22,-25,-32,-38,-11
4.5375,-79,-67,-51,-42,-22,-14,10,-65,-70,-66,-55,-24,-42,-24,-73,-74,-69,-70,-54,-58,-58,-129,-82,-83,-137,-132,-51,-27,-45,-110,-81,-41,-49,-45,-34,-31,23,58,-125,4,-122,-21,-84,-29,-92,-53,-56,-50,-55,-40,-50,-39,-48,-41,-37,-19,-26,-40,-13,3,-15,-35,-50,-24
4.54375,-78,-59,-59,-58,-38,-28,-3,-59,-64,-67,-62,-34,-50,-31,-66,-67,-67,-71,-55,-59,-56,-117,-79,-84,-111,-108,-50,-37,-50,-103,-69,-49,-49,-47,-42,-35,13,53,-93,8,-98,1,-56,-37,-76,-44,-35,-35,-46,-28,-43,-29,-40,-29,-25,5,-6,-29,-3,14,-3,-32,-56,-29
4.55,-71,-63,-53,-59,-37,-31,-3,-54,-62,-60,-50,-24,-39,-23,-49,-55,-59,-59,-42,-44,-41,-103,-73,-79,-104,-101,-47,-35,-44,-84,-58,-41,-40,-43,-43,-35,12,59,-54,4,-56,-23,-52,-33,-52,-32,-21,-17,-31,-15,-27,-14,-20,-8,-1,5,-5,-17,14,39,10,-16,-39,-14
4.55625,-46,-50,-42,-43,-22,-17,7,-36,-45,-46,-34,0,-17,-8,-34,-42,-42,-42,-20,-20,-18,-88,-66,-73,-81,-79,-32,-16,-39,-63,-38,-23,-21,-23,-18,-11,36,70,-50,21,-54,36,-26,-29,-42,-14,-31,-21,-24,-8,-10,6,6,15,20,-5,-5,-6,31,52,10,-1,-9,1
4.5625,-28,-18,-8,-9,16,22,42,-16,-20,-15,-2,24,20,30,-23,-18,-11,-9,15,14,12,-62,-43,-40,-50,-46,10,24,-3,-38,-25,20,25,27,33,34,80,95,-23,52,-6,36,18,-31,12,18,32,30,27,41,42,50,47,49,46,58,52,43,72,93,33,27,28,33
4.56875,5,29,45,40,65,68,78,36,34,41,52,65,62,60,44,39,46,47,63,62,48,-48,-12,-11,-34,-29,41,50,25,-18,3,59,55,62,68,66,105,109,14,61,52,14,49,-4,50,40,85,81,77,88,82,89,82,81,74,115,98,87,112,139,91,83,84,96
4.575,30,44,52,51,74,76,80,69,56,56,63,70,78,71,76,64,68,68,84,82,69,-55,-15,-20,-46,-41,41,48,12,-25,12,52,50,63,68,68,96,105,18,69,33,62,51,21,57,57,102,101,97,107,101,112,105,108,104,141,121,108,138,167,150,138,136,162
4.58125,32,50,63,59,83,81,88,65,62,69,78,85,95,95,80,74,81,86,105,104,93,-37,-7,-14,-31,-26,61,62,16,-21,21,68,66,84,82,78,107,115,-1,82,0,69,60,21,59,74,103,103,98,108,105,122,117,121,116,139,120,105,140,166,170,153,150,178
4.5875,17,47,64,67,83,76,81,33,46,58,66,70,80,83,53,52,56,63,83,86,76,-60,-30,-41,-54,-50,32,26,-15,-50,-7,36,41,51,50,45,68,88,-40,58,-16,52,2,5,1,47,43,54,53,56,57,76,73,84,80,77,65,55,96,122,132,112,116,129
4.59375,-30,5,22,17,33,31,45,-4,10,20,26,23,46,62,12,16,18,20,43,48,53,-106,-74,-87,-110,-105,-15,-19,-54,-107,-59,-11,-4,5,3,2,27,56,-79,37,-54,67,-67,-16,-36,25,5,16,18,21,25,44,42,58,62,39,28,20,61,82,68,48,60,62
8.29375,-21,-27,-2,27,26,30,12,3,-3,1,30,20,28,36,-6,-8,5,22,28,49,47,-53,-41,-32,-76,-71,13,12,-48,-42,-64,-41,-15,1,12,9,-18,12,-13,23,15,16,13,40,33,39,-1,-14,-7,3,14,40,48,45,48,-6,-12,13,46,65,12,21,55,-23
8.3,-37,-36,-11,11,11,17,7,0,-7,-8,20,7,21,35,-11,-14,-3,18,26,47,50,-22,-32,-27,-48,-45,26,12,-46,-25,-38,-21,15,22,26,30,-2,25,-2,44,7,88,25,33,54,60,13,2,5,14,29,58,65,67,65,4,-5,25,64,86,11,22,64,-8
8.30625,-11,-3,21,34,32,33,31,2,5,10,34,24,36,58,-6,-12,3,24,31,49,56,-9,-27,-23,-38,-32,42,16,-35,-12,-6,-11,40,40,37,43,3,23,-6,49,3,51,20,18,39,37,-13,-22,-19,-12,6,33,39,43,47,-43,-42,-8,40,59,-9,10,68,-9
8.3125,-7,2,25,40,29,31,27,0,4,2,20,10,23,31,-12,-18,-8,10,12,26,31,-15,-17,-8,-38,-33,51,30,-17,-10,10,-5,48,41,41,48,11,28,6,36,23,-15,-2,33,36,50,-22,-24,-20,-16,-1,20,24,25,27,-55,-46,-14,20,24,-39,-19,40,-47
8.31875,2,3,15,24,17,24,16,14,7,-6,8,1,11,20,-6,-14,-10,4,2,15,22,-42,-36,-28,-33,-27,36,18,-37,-5,-3,-8,36,26,31,39,1,23,23,28,29,4,-9,55,44,33,-13,-15,-19,-13,3,22,24,24,22,-41,-36,-4,26,26,-48,-31,17,-70
8.325,18,9,21,23,24,33,22,27,12,-2,11,5,24,34,8,-4,-4,12,12,25,33,-26,-33,-22,-25,-20,44,31,-28,11,13,-5,43,35,41,50,6,37,18,38,7,17,17,36,62,26,9,-6,-14,-7,2,22,24,23,25,-25,-25,0,32,33,-30,-14,21,-54
8.33125,6,-4,11,18,20,30,23,9,-5,-12,4,-5,19,26,4,-14,-11,6,10,22,28,-18,-30,-9,-29,-23,39,35,-10,10,16,-11,27,23,32,41,14,42,9,44,27,30,42,37,63,41,6,-6,-6,2,11,35,40,40,43,-20,-18,13,46,51,-6,11,48,-20
8.3375,-7,-20,-4,10,14,34,41,7,-8,-7,10,10,33,52,-2,-10,-2,17,23,45,54,-3,-23,-2,-30,-26,35,41,4,1,-1,-15,11,12,31,40,29,55,13,68,36,88,33,38,52,58,-11,-12,-1,6,18,48,54,56,57,-24,-18,19,53,60,4,26,76,-1
8.34375,-5,-22,0,24,25,45,54,19,5,5,24,29,50,73,5,-1,12,30,35,61,69,-23,-25,-5,-43,-40,31,35,-3,-6,-11,-25,7,16,34,39,21,39,7,61,7,57,13,34,44,54,-16,-14,1,12,24,48,53,54,52,-29,-19,19,48,58,1,31,87,14
8.35,-24,-36,-5,23,20,32,31,-18,-16,-6,15,15,37,51,-23,-17,2,17,23,44,53,-48,-45,-34,-62,-60,11,14,-34,-25,-34,-39,-8,0,17,21,1,13,-20,41,-10,18,4,48,24,35,-35,-31,-16,-5,7,24,30,32,30,-53,-39,-9,13,16,-22,-3,45,-23
8.35625,-37,-51,-18,16,20,34,31,-27,-27,-13,10,7,33,45,-31,-22,-7,12,20,38,50,-61,-53,-43,-71,-68,14,18,-43,-20,-46,-33,1,12,32,37,13,14,-8,47,-9,29,-5,58,13,46,-42,-42,-24,-23,-8,9,17,23,33,-66,-57,-33,-8,8,-48,-46,-11,-72
8.3625,-40,-50,-12,24,29,38,39,-34,-36,-18,7,-10,22,41,-54,-48,-30,-10,-2,18,35,-60,-55,-31,-90,-84,17,24,-22,-49,-73,-39,-2,8,30,30,10,30,-45,43,-39,21,-52,43,-26,46,-85,-81,-59,-58,-39,-17,-6,5,18,-103,-90,-60,-28,-11,-78,-81,-47,-98
8.36875,-72,-65,-26,3,7,16,22,-58,-55,-34,-11,-29,7,34,-70,-60,-43,-17,-7,14,34,-55,-51,-26,-93,-87,25,31,-9,-63,-65,-29,11,20,39,44,22,51,-46,61,-36,67,-37,46,-7,52,-60,-53,-29,-23,-4,21,30,37,42,-63,-52,-14,20,34,-73,-64,-27,-73
8.375,-38,-22,14,40,41,54,60,-16,-16,4,27,4,40,72,-27,-17,-4,23,29,51,64,-27,-12,17,-59,-53,63,64,23,-30,-24,-1,49,54,68,73,44,54,-13,74,-6,69,-13,51,11,52,-37,-34,-12,-5,12,41,41,46,50,-40,-39,5,41,54,-36,-13,25,-16
8.38125,-24,-13,20,45,40,48,49,-17,-16,2,29,-1,31,56,-28,-25,-10,19,21,40,52,-20,-23,-9,-55,-49,55,50,1,-23,-19,-6,43,46,57,61,30,31,-7,54,7,19,-14,53,15,59,-17,-24,-4,-1,12,42,43,45,47,-30,-30,11,42,55,-10,24,60,14
8.3875,-17,-8,13,32,33,39,39,7,-7,-4,20,-3,22,41,-11,-18,-11,17,19,37,47,-23,-18,-7,-56,-51,50,48,5,-17,-8,-8,38,37,51,63,33,39,10,51,17,34,8,55,27,44,-10,-17,-5,0,12,41,42,42,43,-26,-27,6,35,45,-9,13,50,-11
8.39375,3,5,21,35,39,45,49,17,1,5,25,8,29,53,-5,-10,-7,22,28,46,58,-21,-18,1,-42,-38,46,43,10,-3,4,-12,34,30,45,62,31,39,12,65,3,95,2,49,43,55,-15,-19,-7,-10,4,34,41,49,55,-30,-30,-5,32,52,-22,-12,34,-43
8.4,5,-2,14,25,29,41,55,-2,-10,-4,13,1,34,75,-13,-19,-15,11,21,44,66,-22,-24,-16,-47,-43,35,37,-8,5,2,-14,26,22,38,54,27,29,14,71,11,90,-4,49,43,65,-15,-19,-4,-4,6,34,44,55,65,-26,-23,2,35,60,-24,-18,36,-48
8.40625,2,-5,11,31,31,44,50,1,-12,-2,18,3,34,60,-19,-18,-9,15,25,42,56,-10,-17,-6,-34,-33,36,44,3,13,-3,-20,21,20,39,52,26,33,21,50,-5,13,-1,34,4,62,-45,-40,-15,-8,2,25,31,43,63,-45,-37,-4,18,48,-21,-11,51,-28
8.4125,-8,-17,2,22,23,31,36,-15,-26,-8,13,-1,17,36,-43,-32,-21,4,11,24,39,-12,-23,-9,-27,-26,24,31,-6,0,4,-29,10,7,26,39,6,16,-2,37,-45,22,-21,51,-3,47,-55,-49,-22,-17,-7,3,7,15,31,-53,-41,-17,-15,3,-25,-20,36,-25
8.41875,-20,-25,-1,17,11,10,16,-31,-31,-10,11,-11,1,27,-38,-26,-16,7,3,12,27,-21,-33,-29,-41,-37,12,13,-25,-2,2,-38,3,-2,13,26,-14,-3,-20,25,-24,18,-7,57,7,43,-31,-32,-12,1,1,4,6,14,31,-26,-22,-7,-15,6,-23,-32,10,-31
8.425,-27,-31,-11,-3,-5,-2,7,-26,-22,-9,6,-21,-4,25,-29,-19,-6,11,-2,13,27,-37,-45,-31,-51,-47,2,5,-34,10,-14,-52,-5,-17,1,19,-18,-4,-12,27,-16,38,-17,45,-1,53,-29,-31,-18,-5,-4,4,4,19,36,-31,-32,-12,-10,17,-21,-39,-4,-37
8.43125,-37,-37,-27,-29,-20,-12,5,-38,-32,-21,-5,-34,-15,23,-41,-39,-20,-5,-14,6,23,-67,-71,-52,-81,-78,-24,-16,-53,-33,-41,-67,-29,-41,-18,-3,-30,-17,-56,26,-57,60,-55,50,-33,49,-65,-53,-38,-22,-10,7,13,33,49,-54,-51,-11,12,48,-26,-33,11,-28
8.4375,-71,-57,-33,-17,-9,4,22,-64,-48,-23,-1,-22,7,48,-70,-51,-18,1,4,25,45,-71,-69,-51,-89,-86,-6,-1,-38,-48,-44,-46,-15,-13,7,23,6,8,-48,48,-29,48,-56,55,-45,56,-80,-65,-37,-19,-3,17,22,36,48,-70,-59,-7,17,36,-34,-22,22,-24
8.44375,-51,-45,-21,5,13,26,41,-36,-41,-21,-4,-12,16,50,-64,-44,-20,-2,-1,22,39,-40,-43,-25,-66,-63,13,21,-22,-30,-38,-40,-8,-6,20,33,16,11,-32,50,-52,55,-67,51,-43,49,-72,-56,-24,-12,1,22,23,33,49,-59,-41,6,26,45,-32,-13,20,-33
8.45,-34,-31,-14,1,12,26,39,-17,-19,-3,13,5,25,56,-27,-12,5,23,20,38,48,-27,-35,-19,-43,-44,22,23,-21,-7,-18,-31,5,2,23,34,9,9,-18,54,-48,88,-40,27,-1,63,-31,-20,9,15,22,41,39,45,59,-23,-12,22,40,62,-6,7,30,-24
8.45625,-30,-27,-6,5,12,19,30,-27,-20,1,20,3,17,46,-35,-15,5,22,17,29,39,-37,-52,-51,-48,-46,3,-3,-50,-11,-29,-52,-4,-11,4,18,-21,-19,-32,28,-42,18,-34,52,-15,33,-45,-41,-15,-13,-4,13,13,21,33,-27,-29,-2,14,37,14,13,30,-10
8.4625,-46,-39,-24,-13,-11,-7,-4,-37,-35,-20,-4,-17,-5,17,-49,-33,-17,4,-2,13,21,-60,-76,-69,-62,-58,-10,-24,-78,-20,-29,-60,-6,-17,-4,11,-41,-51,-32,8,-42,-3,-38,70,-6,35,-27,-27,-6,1,3,18,18,24,34,-8,-8,13,16,33,24,21,25,7
8.46875,-21,-11,3,1,3,2,1,-15,-8,5,20,7,13,29,-25,-8,1,22,14,27,31,-22,-46,-44,-26,-24,8,-9,-61,5,4,-38,19,3,11,25,-32,-41,-10,17,-30,18,-19,35,3,43,-18,-16,4,13,13,25,23,22,26,-15,-7,19,15,23,18,21,15,-6
8.475,-3,-2,11,7,8,2,-1,-6,-2,11,27,15,14,24,-12,6,16,32,23,33,29,-43,-58,-54,-41,-39,-10,-18,-68,3,-5,-55,2,-13,-3,13,-39,-38,-6,15,-14,21,-20,40,18,33,13,14,36,44,35,44,37,29,28,27,37,54,33,37,33,40,25,1
8.48125,-20,-12,-3,-3,-3,-3,-6,-1,7,17,29,26,15,25,5,24,34,48,36,43,30,-53,-70,-58,-50,-49,-26,-26,-67,-14,-8,-58,-12,-25,-12,5,-37,-36,-23,14,-12,27,-31,32,10,29,10,30,58,66,58,64,51,35,25,44,56,76,43,27,65,67,45,26
8.4875,-20,-6,12,15,17,17,8,4,19,36,58,44,34,45,11,32,55,68,55,60,45,-35,-56,-52,-46,-44,-9,-19,-55,-15,-17,-40,10,-3,9,26,-19,-36,-10,23,0,42,-23,18,24,39,22,41,67,80,74,82,69,52,44,58,69,89,63,47,92,88,63,53
8.49375,-7,12,31,37,39,41,25,29,39,57,77,60,51,54,31,48,75,84,73,76,59,-49,-60,-57,-54,-56,-2,-8,-60,-8,-19,-38,18,1,12,31,-17,-36,5,26,12,32,-19,30,32,48,28,45,69,82,77,88,73,55,41,48,61,89,68,60,98,96,75,68
8.5,-5,8,17,16,20,17,1,22,29,37,53,39,28,26,14,29,49,61,52,53,30,-54,-81,-81,-61,-61,-22,-23,-86,-29,-22,-56,1,-17,-8,9,-38,-59,-27,-5,-49,-26,-32,8,14,25,6,24,46,61,65,75,54,35,20,30,45,81,55,40,81,81,68,56
8.50625,-14,14,31,36,45,35,16,21,44,59,77,66,50,48,32,58,77,92,89,86,59,-11,-33,-27,-12,-11,29,23,-33,23,11,-5,61,43,48,67,18,-11,21,34,21,34,35,24,71,46,56,78,102,122,125,130,103,75,51,79,99,138,101,82,92,95,86,71
8.5125,40,69,80,83,87,71,49,71,94,104,119,93,76,71,74,98,121,127,115,104,70,25,-7,-2,15,16,48,40,-18,50,40,4,68,46,53,69,15,-13,32,26,35,37,21,38,75,16,65,80,101,117,119,117,86,53,31,67,83,122,81,58,105,106,96,77
8.51875,34,58,64,62,63,42,20,65,88,95,105,69,50,40,68,89,111,114,94,77,43,4,-22,-19,-4,-4,24,19,-32,42,27,-13,49,29,34,52,-7,-20,29,16,22,27,11,18,60,31,48,76,99,117,118,109,80,50,39,62,82,119,78,68,106,106,95,79
8.525,40,67,76,72,70,52,28,78,100,110,121,76,57,47,86,101,119,128,103,86,51,13,-9,-3,12,13,37,32,-10,56,41,0,64,48,52,70,12,-1,50,30,51,15,33,18,72,37,50,79,105,126,125,112,83,58,48,77,95,126,86,84,107,105,93,78
8.53125,59,78,87,82,78,60,37,81,98,113,123,78,61,45,70,95,118,125,99,83,50,19,-5,-10,23,24,45,32,-23,64,64,12,77,52,55,70,6,-15,64,16,64,-5,26,25,76,26,53,79,98,122,116,105,77,53,41,75,92,117,80,88,111,107,102,76
8.5375,62,77,81,72,63,43,20,75,91,99,106,64,46,32,58,83,99,100,77,63,32,-6,-31,-32,-1,1,22,4,-43,45,49,-8,61,33,32,52,-8,-30,48,8,34,17,12,5,40,-16,27,51,69,87,81,76,53,30,16,47,61,86,57,67,99,95,102,77
8.54375,57,68,71,65,57,44,28,77,86,87,96,55,50,46,55,79,90,98,74,68,42,17,-26,-29,12,13,32,16,-36,62,66,8,76,48,49,72,25,-5,68,42,37,54,27,18,62,26,46,64,83,103,99,101,85,65,53,69,80,109,91,99,93,92,109,81
8.55,75,91,94,84,78,70,56,86,102,107,116,69,74,70,70,90,109,115,98,88,67,23,-3,-9,29,30,50,40,-8,78,73,24,80,52,57,77,23,6,65,40,54,20,41,22,83,49,60,69,79,99,92,96,82,65,58,66,71,91,83,88,94,88,103,73
8.55625,54,63,63,57,46,45,36,57,71,70,76,33,41,44,52,55,71,74,59,55,41,-11,-32,-20,11,12,21,26,-10,63,39,-14,37,13,21,43,1,-6,45,24,52,5,34,20,62,31,46,37,41,56,51,63,51,43,38,31,35,56,58,73,75,67,84,52
8.5625,38,31,25,20,13,20,21,51,46,41,45,12,26,35,33,36,46,51,42,49,35,-9,-45,-39,1,1,5,7,-33,58,20,-26,23,0,8,32,-6,-9,42,20,26,26,18,50,43,29,15,17,22,36,40,57,45,42,37,12,16,42,53,73,47,42,71,34
8.56875,31,23,15,9,2,12,15,33,30,24,31,-6,15,30,10,18,24,31,22,27,20,-12,-51,-53,-13,-12,-5,-12,-57,44,6,-35,12,-10,-4,17,-24,-16,30,10,19,9,15,31,39,14,0,2,4,15,19,32,15,13,14,3,7,28,30,53,24,19,58,8
8.575,30,28,23,11,1,1,6,39,36,30,34,-16,0,18,26,29,32,41,23,20,12,2,-26,-24,14,12,20,6,-29,65,31,-18,39,20,21,42,-7,5,59,21,62,52,45,12,73,11,31,35,40,48,48,51,31,26,25,38,40,53,44,64,35,29,62,10
8.58125,69,64,60,49,34,28,33,74,67,59,62,12,26,57,47,49,58,67,48,46,39,4,-20,-12,3,7,36,21,-20,64,42,-2,53,35,35,51,2,12,71,41,72,70,32,8,58,22,21,29,37,54,59,58,38,34,31,21,29,54,46,69,45,44,74,18
8.5875,59,55,51,47,29,23,25,62,59,53,53,2,17,38,27,39,53,61,39,31,18,-13,-40,-35,-15,-14,20,6,-40,40,31,-14,39,18,21,38,-9,1,55,18,41,-30,-5,26,16,21,3,15,27,50,50,45,24,16,18,15,26,52,37,56,47,49,81,23
8.59375,55,57,51,42,24,22,15,67,66,62,60,3,14,18,34,54,64,72,46,35,20,9,-21,-28,8,8,32,21,-32,59,45,3,56,37,40,59,14,12,55,27,7,-7,22,32,52,34,49,51,64,81,79,73,51,40,39,54,61,83,58,71,63,64,92,39
8.6,53,71,72,69,56,52,41,54,78,84,89,37,40,47,47,72,85,93,68,58,41,-7,-37,-33,-11,-8,32,21,-24,44,35,8,54,36,40,54,20,-3,19,30,14,14,-2,21,51,12,29,41,54,74,71,64,40,28,18,38,45,65,41,46,73,71,93,52
8.60625,16,42,50,50,45,40,40,17,51,64,74,22,23,36,11,43,66,74,50,39,22,-47,-53,-43,-44,-41,18,11,-29,15,25,2,50,33,40,60,21,-8,14,24,9,32,-18,11,20,6,4,30,50,68,68,56,37,22,7,37,50,63,34,36,64,51,64,22
8.6125,49,84,92,92,89,74,62,68,93,115,128,69,65,63,58,90,115,125,102,88,63,16,5,17,17,18,74,74,19,71,78,56,112,98,99,113,67,45,71,83,72,60,41,10,86,67,76,96,115,135,136,128,112,96,78,98,112,133,109,119,85,67,78,25
8.61875,91,128,143,143,134,119,94,106,134,153,171,109,111,111,93,121,150,160,142,132,109,18,0,10,22,25,79,72,20,68,84,57,112,98,96,107,60,37,67,86,58,69,20,29,80,74,72,92,105,128,127,123,108,93,71,88,97,117,98,100,110,93,107,39
8.625,71,100,113,106,99,87,69,77,102,115,125,70,84,88,67,89,115,121,106,99,82,13,-24,-29,3,6,48,32,-17,49,65,22,83,65,61,80,23,-13,46,48,32,44,3,27,58,40,53,73,83,101,102,90,77,64,46,73,81,95,70,67,106,82,91,24
8.63125,59,92,100,92,83,74,55,72,96,109,119,74,84,84,67,88,110,121,108,103,88,-14,-32,-39,-15,-10,44,30,-29,49,62,30,93,71,64,83,28,-6,61,62,69,65,9,31,74,77,72,100,113,127,128,125,115,105,90,108,117,129,110,120,106,83,91,29
8.6375,94,124,130,121,115,111,91,120,134,145,155,117,125,124,110,126,148,157,144,140,128,8,-4,3,20,23,77,65,7,84,111,63,125,104,97,116,61,27,102,83,84,77,32,41,108,102,109,130,138,142,136,130,120,113,98,130,131,130,109,116,122,96,106,47
8.64375,117,138,143,133,132,119,91,131,141,147,157,110,119,114,114,126,145,147,128,126,116,20,-1,-2,21,26,84,62,2,85,113,60,124,108,101,117,55,10,85,70,71,56,48,39,107,89,100,114,119,120,119,111,109,105,93,108,113,109,100,112,123,97,111,59
8.65,95,125,135,130,126,109,82,116,130,137,145,95,110,105,99,120,134,132,118,119,111,5,-17,-17,20,23,79,55,-6,77,111,61,122,103,95,111,58,16,78,73,70,82,34,12,96,82,83,103,107,108,107,100,94,92,75,92,96,88,81,90,102,69,81,29
8.65625,95,119,125,117,100,87,75,110,120,117,122,72,84,93,84,100,111,106,88,89,91,1,-35,-27,13,15,62,41,-15,63,106,37,103,79,73,91,33,2,61,57,55,52,17,33,81,64,60,71,72,77,78,72,67,70,57,62,65,64,62,76,64,23,37,-31
8.6625,76,100,108,111,95,76,59,83,97,101,115,70,72,81,58,80,90,95,78,78,82,-3,-23,-18,5,8,60,41,-16,61,82,39,102,82,76,93,27,3,62,56,45,74,-1,48,53,48,39,55,62,74,72,73,67,69,59,53,62,67,66,83,46,8,30,-44
8.66875,82,107,115,111,101,84,72,93,97,104,115,79,81,101,69,83,92,100,82,86,92,1,-16,-6,10,12,72,56,-1,82,90,57,120,99,93,109,46,14,83,73,49,86,12,26,70,60,61,84,90,101,92,91,83,82,69,82,91,90,82,92,64,32,60,-3
8.675,105,128,139,130,119,103,88,124,123,127,137,100,98,108,96,109,119,119,100,100,102,30,-2,1,36,39,92,74,7,101,114,70,135,116,112,126,58,7,99,72,91,70,52,25,97,64,76,91,96,105,99,94,85,80,63,78,88,87,79,82,83,52,86,21
8.68125,106,121,135,128,116,98,72,121,114,116,125,94,84,80,79,98,108,109,88,88,83,16,-3,-4,27,31,84,56,-12,89,89,60,122,105,102,111,41,-13,80,45,60,10,41,36,102,61,81,84,85,91,84,84,77,73,61,65,77,79,74,79,81,51,80,13
8.6875,73,87,101,97,90,78,50,81,82,82,91,64,62,62,61,70,79,80,64,66,69,1,-22,-24,15,16,65,36,-26,67,60,34,93,81,80,89,14,-11,58,29,46,8,19,26,79,44,55,57,57,63,56,61,52,48,35,51,58,58,51,55,66,37,53,2
8.69375,63,73,87,92,87,78,52,72,73,76,88,71,67,65,51,65,76,79,68,70,69,23,1,5,25,26,82,63,3,70,69,47,106,97,97,107,40,21,63,53,39,40,39,27,64,48,43,61,61,76,71,73,64,62,49,58,68,72,62,72,62,36,46,17
8.7,69,78,97,100,100,90,71,69,73,79,94,82,75,80,50,66,76,82,74,78,82,22,7,16,19,22,84,77,17,62,68,53,103,96,100,107,52,25,54,62,44,58,39,29,78,56,48,60,55,70,66,71,66,68,60,50,60,59,56,59,61,33,51,17
8.70625,71,84,102,98,103,94,80,77,78,82,98,80,80,97,57,66,76,81,79,83,95,25,11,19,21,23,90,81,20,67,73,55,111,106,108,118,68,42,62,81,69,100,35,36,93,61,61,61,60,69,69,75,73,77,58,55,60,61,58,55,57,26,45,-5
12.5,-11,10,16,22,28,21,32,8,5,9,14,87,23,18,-15,-1,5,6,20,29,27,-50,-8,-23,-60,-55,6,15,2,-45,-17,54,7,4,-9,17,35,17,-23,3,-26,-4,-33,-4,-40,13,-14,-8,-13,-3,7,8,16,8,4,-3,-10,-8,3,-16,-8,-21,-21,-51
12.50625,-31,-8,-5,-2,5,-3,7,-13,-12,-8,-7,69,-2,-7,-34,-17,-11,-12,1,8,5,-69,-31,-48,-83,-78,-22,-13,-15,-70,-46,21,-21,-27,-36,-6,10,-14,-50,-20,-54,-40,-33,-4,-52,-11,-30,-28,-25,-22,-8,-8,1,-5,-10,-20,-23,-19,-3,-9,-9,-16,-20,-48
12.5125,-49,-26,-21,-15,-6,-11,-5,-29,-28,-18,-11,68,-4,-12,-40,-26,-20,-15,-4,7,5,-64,-27,-46,-86,-80,-29,-15,-17,-78,-54,11,-34,-39,-45,-17,6,-18,-63,-19,-59,-18,-29,-11,-56,-12,-24,-33,-42,-37,-22,-16,-5,-8,-13,-25,-35,-34,-8,-15,-20,-22,-16,-43
12.51875,-78,-61,-53,-38,-28,-27,-11,-61,-62,-49,-33,44,-18,-15,-68,-59,-48,-42,-26,-10,-3,-90,-45,-51,-113,-106,-49,-30,-25,-108,-68,-11,-63,-66,-65,-41,-6,-17,-90,-14,-63,12,-56,-42,-85,-4,-58,-57,-61,-54,-38,-31,-20,-15,-15,-40,-50,-45,-16,-20,-33,-34,-10,-42
12.525,-81,-67,-61,-44,-33,-25,-4,-50,-63,-51,-39,40,-18,-5,-68,-60,-46,-42,-23,-10,4,-79,-31,-45,-90,-87,-40,-21,-13,-95,-49,-3,-47,-51,-53,-23,10,-5,-68,1,-69,5,-64,-45,-84,-8,-54,-50,-48,-42,-26,-24,-14,-14,-14,-34,-44,-35,-10,-14,-37,-28,6,-23
12.53125,-76,-58,-51,-39,-26,-24,-5,-60,-68,-54,-47,34,-24,-21,-77,-67,-52,-47,-33,-22,-14,-78,-30,-37,-115,-109,-48,-23,-13,-111,-86,-13,-59,-67,-68,-40,-1,-18,-98,-22,-108,-50,-52,-6,-93,-20,-72,-69,-67,-53,-39,-35,-27,-27,-23,-61,-65,-48,-24,-31,-53,-39,0,-45
12.5375,-93,-69,-64,-55,-45,-41,-21,-73,-67,-55,-49,28,-29,-34,-72,-57,-44,-36,-23,-17,-12,-81,-31,-36,-101,-97,-46,-21,-12,-89,-64,-12,-55,-61,-64,-35,-2,-18,-71,-22,-62,-25,-32,-7,-69,-6,-49,-41,-40,-26,-9,-13,-10,-15,-13,-27,-30,-23,-11,-22,-49,-40,-6,-58
12.54375,-58,-39,-39,-39,-31,-27,-13,-36,-29,-23,-17,49,-16,-24,-42,-29,-16,-11,-1,0,-5,-50,-25,-33,-69,-65,-35,-16,-7,-64,-41,-4,-41,-48,-54,-23,2,-8,-51,-20,-39,-25,-27,-23,-62,-16,-31,-22,-18,-13,2,-5,-6,-16,-16,-10,-13,-12,-7,-26,-25,-22,1,-37
12.55,-49,-31,-30,-20,-16,-17,-5,-31,-24,-16,-2,59,-13,-25,-33,-20,-8,-7,2,2,-5,-39,-19,-29,-54,-51,-24,-4,6,-56,-20,19,-26,-31,-35,-5,23,7,-36,-15,-26,-18,-4,-20,-33,-10,-2,5,4,4,13,4,7,-7,-9,22,13,-1,-6,-36,4,-8,-4,-20
12.55625,-28,-14,-13,4,10,6,7,-7,-7,-1,13,79,7,-7,-8,-2,7,7,18,21,14,-71,-25,-40,-64,-59,-21,-11,-23,-48,-13,17,-22,-26,-31,-4,11,-9,-29,-16,-16,-4,-2,-14,-27,-11,2,5,-2,-4,2,-6,-2,-12,-16,8,-2,-23,-16,-40,7,-14,-11,-17
12.5625,-45,-31,-31,-22,-7,-6,1,-22,-28,-20,-7,59,-7,-13,-26,-23,-16,-19,-7,1,-4,-78,-25,-36,-93,-87,-30,-15,-7,-81,-30,5,-33,-36,-42,-15,16,20,-50,5,-27,11,-33,-3,-49,-15,-16,-11,-18,-22,-15,-25,-15,-22,-26,-11,-16,-34,-26,-41,-14,-33,-16,-34
12.56875,-37,-13,-12,-11,6,12,23,1,-7,-1,10,76,11,6,-3,4,3,2,10,18,17,-13,31,26,-49,-45,14,30,53,-48,22,46,13,10,-2,23,50,42,-1,27,10,39,-4,-10,-2,16,41,44,38,30,31,19,27,20,15,56,51,27,25,7,2,-10,12,-20
12.575,27,45,40,31,45,43,51,66,56,45,45,107,46,42,67,62,51,45,52,57,55,20,52,37,-1,3,44,50,62,-7,68,65,48,39,25,45,64,50,25,41,24,51,55,16,53,30,94,86,71,62,59,47,49,40,32,91,78,51,50,29,52,38,60,17
12.58125,25,43,40,31,46,44,53,39,46,40,42,100,44,39,52,49,44,40,48,53,50,11,46,31,-25,-19,35,43,53,-18,34,58,31,28,18,33,65,50,-1,42,23,49,39,15,29,31,45,53,42,40,41,39,46,41,34,43,42,32,50,37,66,54,82,25
12.5875,-9,15,23,22,46,51,63,7,18,19,26,92,49,49,23,29,25,23,39,52,60,-5,48,45,-52,-47,34,50,74,-54,-1,59,17,25,20,37,78,59,-30,55,-5,72,8,-15,6,41,37,46,43,33,37,45,58,59,57,54,51,40,70,69,51,48,87,20
12.59375,-23,7,19,29,46,60,70,11,27,25,32,95,59,57,40,46,39,36,53,69,71,-10,31,27,-59,-54,20,36,58,-61,-19,50,7,14,13,35,69,45,-23,43,9,32,35,26,25,41,66,74,65,56,58,68,78,77,74,92,81,60,95,95,55,58,102,36
12.6,-11,20,23,25,41,54,57,27,39,32,31,97,57,43,55,54,49,42,56,70,70,7,36,35,-37,-34,24,49,58,-31,-3,60,20,20,18,41,76,50,7,35,32,11,40,44,31,61,77,85,68,65,64,74,83,84,80,103,89,65,96,92,80,80,114,62
12.60625,22,47,46,44,67,76,81,50,53,49,50,122,76,56,69,65,63,57,71,85,83,24,66,62,-14,-8,51,75,91,1,29,84,45,47,44,70,101,80,29,59,36,49,39,40,38,60,85,88,75,68,69,77,80,74,65,94,81,61,82,70,94,84,105,68
12.6125,27,52,58,61,80,81,82,45,62,62,65,134,74,52,66,68,69,63,68,77,69,5,49,48,-25,-19,38,59,77,-13,16,72,36,38,35,55,75,60,7,42,32,38,40,20,35,42,77,83,72,68,73,74,74,66,56,92,83,67,82,68,91,82,100,73
12.61875,20,50,56,60,72,68,65,45,67,65,63,130,71,53,69,74,73,66,75,82,74,20,59,58,-18,-14,44,58,80,-3,29,77,43,41,35,56,69,56,23,41,59,55,58,8,44,44,83,89,74,70,73,80,83,74,65,101,86,64,83,63,89,79,106,65
12.625,31,53,56,56,72,71,70,52,59,58,57,127,75,60,65,62,63,59,72,83,78,27,56,60,-7,-2,49,65,97,12,43,78,49,47,41,64,79,65,44,52,56,41,63,-6,40,49,70,73,60,52,60,69,76,69,59,77,68,53,78,56,73,65,99,38
12.63125,60,72,75,73,85,81,83,67,70,67,70,143,86,65,70,68,67,63,80,91,82,51,76,63,14,20,66,76,91,30,65,101,64,63,55,76,90,73,58,62,51,60,78,16,56,61,83,82,71,65,72,78,80,74,61,89,80,74,87,70,72,71,100,49
12.6375,50,61,65,63,74,74,81,44,60,55,60,127,74,66,62,60,58,51,64,77,74,7,59,62,-8,-2,59,71,83,20,45,92,52,53,48,69,87,65,40,51,65,57,72,25,46,42,81,83,66,65,68,68,67,58,45,93,82,76,76,60,82,82,103,62
12.64375,43,56,62,62,73,71,75,40,56,54,61,120,64,49,56,55,52,48,57,67,59,24,55,58,-11,-7,60,70,78,11,44,86,53,56,48,67,77,50,23,30,24,-3,53,16,24,26,63,57,38,44,49,50,50,37,28,59,46,46,57,37,70,73,87,44
12.65,20,37,51,53,63,54,52,4,30,36,48,106,50,21,22,24,29,31,43,53,39,16,54,43,-20,-15,49,50,56,-8,18,78,40,46,37,52,62,46,-6,20,6,6,39,17,5,26,33,31,20,31,44,51,55,44,34,36,30,44,63,49,42,50,69,16
12.65625,15,39,55,60,76,63,61,6,35,46,64,123,70,41,25,36,45,53,69,79,62,33,63,56,7,12,66,62,79,13,35,88,60,65,52,69,76,63,20,37,40,40,39,15,3,34,26,41,34,49,66,73,76,64,48,48,40,62,82,72,36,49,74,18
12.6625,32,52,70,77,84,70,69,21,48,64,81,135,74,52,25,44,59,67,82,88,74,52,60,52,4,11,61,63,78,9,46,86,60,62,49,62,71,63,15,43,2,54,16,9,-17,51,14,40,43,62,83,91,94,86,73,39,44,81,102,97,45,73,103,45
12.66875,20,42,60,62,71,58,62,9,37,56,73,131,65,55,15,40,54,63,77,82,77,7,37,35,-14,-11,39,44,53,-12,30,65,36,35,24,37,48,41,-11,29,-31,39,3,10,-22,44,10,26,29,45,59,68,70,65,58,30,31,57,74,60,49,83,110,44
12.675,-14,9,25,25,35,30,40,-33,2,21,32,98,38,26,-9,7,19,24,39,50,50,-35,12,4,-46,-41,13,18,25,-34,1,36,11,11,1,18,28,25,-34,16,-23,24,10,-17,-26,29,-3,7,8,21,32,47,52,48,39,8,15,45,63,57,31,67,90,20
12.68125,-28,-3,11,14,24,25,40,-37,-6,8,15,83,42,34,-13,1,10,14,35,49,56,-22,7,-5,-57,-50,7,14,20,-41,-6,35,6,7,-3,11,29,25,-40,24,-23,64,5,6,-27,35,10,19,20,33,46,61,67,59,50,32,33,69,87,82,34,72,92,30
12.6875,-26,1,21,28,35,35,47,-29,3,18,32,94,44,40,-3,14,22,32,48,55,57,-16,14,14,-43,-37,23,29,42,-33,1,49,25,29,17,27,34,25,-24,16,-7,13,6,25,-22,25,23,28,29,43,55,65,64,50,39,53,45,75,82,74,61,98,116,71
12.69375,-9,17,41,48,43,33,29,-15,14,33,49,102,36,10,4,23,29,37,49,50,38,-18,24,25,-46,-40,25,31,43,-30,16,44,25,29,17,27,25,17,-15,-1,-7,-14,21,12,-8,17,30,29,23,34,45,53,51,39,31,54,40,55,65,58,77,103,118,81
12.7,-9,11,24,36,34,24,24,-19,10,20,33,93,35,11,2,17,17,18,39,44,39,-24,13,10,-59,-51,7,16,34,-42,5,34,1,4,-2,7,16,14,-34,-1,-17,26,10,1,-13,25,35,23,16,19,33,44,46,37,36,43,30,46,63,67,70,89,100,64
12.70625,-34,-14,-7,7,13,14,25,-36,-4,0,11,81,30,21,-9,6,4,4,30,41,42,-51,-9,-5,-74,-68,-10,2,19,-56,-27,16,-18,-14,-17,-2,12,25,-41,11,-15,46,-5,8,-44,22,5,12,15,17,31,43,43,39,40,36,30,48,64,75,56,80,89,61
12.7125,-37,-17,-10,-3,11,18,33,-31,-3,3,18,82,39,32,-17,-1,9,13,33,47,53,-44,-3,9,-80,-73,-7,13,31,-73,-29,22,-17,-12,-10,3,25,31,-58,14,-63,17,-43,14,-62,38,-12,4,9,17,39,56,61,60,64,33,28,53,79,97,50,86,96,74
12.71875,-71,-29,-4,11,34,39,54,-65,-11,15,45,112,71,63,-30,2,27,45,73,86,92,-92,-29,-5,-161,-146,-3,28,32,-176,-87,34,-15,4,13,16,52,39,-143,33,-104,46,-74,29,-62,83,2,20,35,55,91,108,115,111,109,58,57,97,129,144,62,110,125,83
12.725,-112,-25,22,48,69,70,74,-72,6,53,90,150,102,85,-6,34,65,88,109,117,119,-149,-82,-70,-191,-178,-10,5,-26,-158,-62,26,-10,8,12,18,36,18,-96,25,-55,60,-23,24,-39,73,15,29,36,53,81,92,93,90,90,58,48,82,108,131,77,130,152,102
12.73125,-35,-10,10,18,32,33,46,-39,-9,13,30,88,46,36,-8,4,17,23,38,46,53,8,12,1,18,14,3,9,3,27,41,24,-11,-11,-11,7,20,21,1,2,-11,20,26,4,-30,26,-5,-3,-8,-5,12,16,17,20,26,14,4,15,35,54,52,89,111,67
12.7375,-12,-30,-27,-25,-14,-12,13,-51,-38,-32,-22,41,-6,-7,-24,-25,-22,-22,-12,-4,4,22,23,21,21,25,-17,-5,7,24,30,2,-26,-34,-37,-16,-5,0,-2,-19,-5,-12,29,-33,-24,2,7,9,8,4,15,18,16,17,25,42,31,35,49,74,32,51,71,39
12.74375,-5,-13,-7,-14,-8,-13,4,-18,-6,0,7,58,3,-5,5,6,10,8,15,20,14,-39,-3,-10,-5,-4,-23,-26,-32,26,37,-3,-13,-25,-41,-22,-31,-33,18,-43,7,-30,36,0,-18,0,3,10,12,13,23,27,20,18,29,22,15,32,51,77,29,49,77,52
12.75,5,-13,-11,-27,-35,-46,-37,-29,-19,-17,-16,22,-31,-50,-22,-21,-13,-16,-17,-20,-29,-2,4,-11,29,27,-34,-51,-56,45,40,-15,-25,-44,-63,-46,-63,-67,15,-76,11,-61,38,-15,-25,-29,-8,-14,-16,-16,-9,-14,-22,-23,-16,-3,-8,-4,6,17,13,31,60,35
12.75625,-2,-14,-18,-40,-41,-52,-38,-28,-18,-21,-25,12,-40,-53,-21,-17,-15,-20,-22,-25,-33,-10,-2,-11,1,4,-22,-35,-45,21,30,3,-7,-21,-38,-21,-33,-49,18,-56,23,-33,48,-22,-18,-25,5,2,5,3,11,6,-1,-6,-2,27,14,20,29,44,11,24,49,30
12.7625,22,26,31,14,10,-2,6,12,22,25,20,56,6,-10,5,16,23,17,23,21,7,4,5,-5,23,23,12,-5,-34,28,62,43,27,16,-2,11,-3,-36,25,-34,12,-8,57,-16,-1,-8,9,11,17,18,35,33,29,23,23,28,15,31,52,67,24,41,64,49
12.76875,26,31,36,23,21,12,22,3,19,31,32,73,25,4,3,14,26,27,36,38,27,-12,8,2,12,14,11,-1,-36,42,55,45,16,8,-2,11,1,-36,18,-27,27,-14,74,-3,19,16,22,15,19,24,47,53,49,46,44,32,19,39,69,80,34,60,87,62
12.775,33,40,49,44,49,44,49,14,40,55,60,111,62,34,20,33,46,55,70,70,59,-8,22,20,26,28,33,26,-13,57,67,65,37,32,24,37,31,-7,43,-2,49,24,64,-4,11,30,14,16,20,26,55,61,58,51,39,17,8,35,67,64,27,60,95,51
12.78125,42,49,56,60,58,50,57,12,38,58,64,114,62,35,3,22,40,52,63,60,50,-14,16,14,10,13,17,16,-11,35,61,58,24,14,7,20,23,-7,26,-1,7,41,29,-30,-20,23,-14,-6,5,7,40,48,46,44,37,-5,-11,24,59,53,8,43,81,33
12.7875,21,24,26,29,34,33,50,-8,16,32,40,90,51,34,-13,7,24,36,52,52,51,-8,2,-1,0,1,-5,1,-19,27,48,39,1,-11,-13,3,17,6,14,2,3,22,36,-16,-16,32,1,-2,-4,7,37,46,48,47,44,5,-1,27,64,65,0,36,69,41
12.79375,12,13,17,17,32,34,52,-2,20,35,41,98,52,37,1,11,29,40,57,56,57,-45,-19,-10,-26,-24,-28,-10,-29,14,13,22,-25,-29,-26,-11,6,5,3,-11,-3,-11,39,24,-16,30,6,2,-1,14,42,52,51,50,44,12,5,33,73,72,8,45,70,63
12.8,-11,-7,4,8,22,16,27,-23,11,29,42,97,39,20,-20,-3,23,39,50,49,46,-94,-54,-45,-55,-54,-58,-38,-64,-12,-4,6,-46,-46,-44,-33,-17,-26,-14,-21,-17,27,10,1,-44,24,-32,-12,-5,20,45,58,58,55,45,2,2,43,79,73,20,55,81,78
12.80625,-6,2,15,18,31,24,39,-11,19,41,55,108,58,46,-13,13,37,57,68,70,68,-69,-35,-27,-32,-31,-33,-20,-42,7,30,26,-13,-16,-21,-5,4,-19,3,2,-10,51,20,1,-35,29,-23,-1,7,32,58,73,69,61,47,5,8,52,88,76,24,60,96,71
12.8125,-1,11,29,34,46,40,50,-17,22,49,64,109,61,43,-12,11,37,57,70,71,63,-44,-29,-22,-25,-23,-24,-14,-36,3,30,31,-8,-9,-14,-4,7,-21,-14,-4,-20,-17,34,18,-26,34,-12,7,15,42,70,86,80,73,62,14,20,71,105,99,26,67,116,81
12.81875,-17,6,32,38,48,39,45,-27,21,57,79,120,61,37,-4,20,50,69,80,80,67,-54,-38,-34,-31,-29,-33,-27,-45,0,23,27,-15,-20,-25,-13,2,-25,-11,-4,-2,22,35,5,-20,38,0,21,30,58,80,90,80,70,58,23,32,73,99,81,27,65,109,70
12.825,-8,10,29,30,40,33,41,-8,31,58,78,115,62,39,10,35,60,73,80,81,65,-67,-43,-40,-25,-23,-41,-33,-54,12,38,21,-15,-23,-27,-9,-1,-39,8,-6,15,24,33,-20,-12,34,15,37,42,71,89,97,86,76,62,40,52,87,109,91,31,58,88,55
12.83125,21,37,50,52,52,43,42,23,61,80,93,126,70,41,36,61,82,91,97,92,74,-51,-26,-19,5,7,-16,-17,-34,40,82,51,17,7,-1,13,3,-39,37,-15,29,-14,53,16,17,37,48,64,69,88,104,111,97,84,72,62,71,101,118,102,50,69,92,68
12.8375,47,64,78,71,66,46,29,37,73,93,102,132,65,28,42,67,89,95,96,87,63,-37,-20,-28,11,14,-6,-22,-56,49,100,54,32,17,1,13,-20,-58,38,-34,31,-26,59,17,4,36,23,48,58,71,91,93,80,62,52,42,54,81,91,82,51,71,103,75
12.84375,47,69,86,71,61,36,17,43,76,96,101,129,58,21,43,68,87,94,92,82,61,-7,-16,-18,39,38,0,-12,-54,70,112,59,43,25,7,21,-10,-48,60,-21,62,28,79,4,15,37,37,63,71,80,97,93,81,64,52,61,71,86,86,76,49,67,103,77
12.85,64,80,107,81,73,50,40,64,84,96,99,134,70,48,53,72,86,87,86,80,73,-26,-20,-15,24,24,-2,-7,-34,64,100,66,35,24,12,19,8,-30,55,-4,44,49,48,-11,8,33,35,53,51,63,76,73,65,56,46,48,50,64,68,63,43,55,96,76
12.85625,51,62,105,64,59,40,41,45,68,75,75,109,50,36,32,53,62,61,61,58,55,-58,-27,-18,2,4,-8,-6,-34,52,76,59,32,20,8,17,9,-27,41,-9,11,-10,55,-18,8,28,26,35,34,46,58,59,50,44,38,36,34,48,56,49,32,45,79,77
12.8625,46,61,98,57,44,26,25,25,60,63,65,81,32,11,24,42,48,52,52,44,40,-35,-19,-18,17,17,-8,-12,-36,49,85,51,24,8,1,7,-4,-25,32,-18,30,-1,62,19,1,33,21,25,22,29,42,42,35,32,34,30,23,31,43,33,19,32,55,71
12.86875,15,26,65,35,24,16,16,-2,25,32,38,58,17,7,-1,14,23,30,32,27,31,-42,-29,-26,-6,-5,-17,-18,-36,6,65,43,6,-1,-5,-1,-12,-29,-3,-18,-6,33,18,4,-23,29,12,11,8,17,27,26,23,22,26,20,14,18,30,13,5,11,33,56
12.875,-3,17,64,41,31,20,21,-12,16,32,39,71,21,19,-6,11,22,32,37,32,35,-43,-26,-26,-16,-13,-3,-10,-41,10,78,49,22,15,8,14,-6,-25,-10,-16,-13,29,33,8,-24,28,-3,3,8,14,28,25,21,16,16,10,6,13,17,-11,-8,-7,15,39
12.88125,1,20,71,44,37,23,23,-22,15,32,41,70,18,11,-14,2,18,27,30,24,25,-43,-34,-24,-11,-7,-2,-11,-44,14,81,55,25,14,6,12,-3,-24,-4,-22,8,-4,32,15,-31,23,-11,-1,-1,4,20,21,16,12,8,6,1,7,12,-19,-15,-18,3,25
12.8875,11,22,65,37,34,26,34,0,18,29,33,66,24,24,1,3,15,22,31,32,38,-64,-39,-22,-16,-13,2,-1,-23,23,76,58,22,17,12,18,13,-1,24,-7,13,18,36,11,-21,21,7,9,1,12,28,29,26,18,11,15,9,16,21,-11,-12,-11,9,15
12.89375,23,26,64,43,39,36,47,7,20,31,35,73,37,32,4,8,20,29,44,43,46,-43,-18,-11,0,3,11,19,0,32,84,69,30,27,29,36,39,15,19,18,2,71,43,-3,-10,31,1,9,8,24,40,43,41,29,20,16,15,26,31,-6,-6,-2,22,16
12.9,22,39,83,63,71,73,87,4,31,49,58,101,68,67,9,20,39,47,67,67,71,-19,5,13,15,19,35,45,37,37,97,101,52,53,56,61,67,29,17,36,17,67,49,24,5,50,11,18,13,34,46,54,53,44,31,24,20,30,45,8,3,8,40,32
16.58125,-11,-22,-43,-68,-47,-26,-32,-20,-21,-27,-25,-78,-29,-33,-13,-19,-23,-23,-22,-24,-12,-51,-35,-43,-25,-21,-50,-33,-42,13,-26,-31,-26,-44,-30,-41,-24,-23,5,-5,29,-32,20,-21,22,-15,-1,3,-4,-6,-10,-11,-11,-8,-6,-2,-26,1,-10,12,-27,-30,-42,-18
16.5875,6,-6,-24,-47,-30,-12,-17,4,-5,-15,-12,-61,-13,-17,12,1,-7,-8,-5,-10,1,-50,-48,-53,-18,-14,-42,-37,-44,20,-21,-22,-8,-22,-17,-32,-23,-15,29,-3,53,-14,32,-28,41,-32,33,34,24,21,7,4,2,3,-4,37,10,26,7,27,17,10,-13,39
16.59375,45,33,15,-8,-3,8,-3,54,41,28,31,-27,14,14,63,51,38,35,30,24,34,2,-5,-19,34,36,5,-3,-15,66,33,22,43,30,29,16,13,12,78,26,81,36,93,1,95,14,96,87,73,69,50,48,45,44,45,92,56,69,52,70,73,63,27,121
16.6,73,61,46,18,26,34,14,56,57,41,48,-10,31,26,67,55,45,40,37,37,46,5,-1,-22,35,40,10,-2,-20,60,32,19,41,24,24,2,-6,-10,55,8,68,2,68,-5,82,30,72,58,42,35,27,34,32,39,49,53,20,42,40,63,86,82,43,155
16.60625,45,41,27,-5,5,11,-11,32,34,19,21,-33,9,-2,43,32,20,15,20,18,27,-17,-12,-25,27,31,7,-8,-22,50,21,7,40,22,18,-2,-15,-17,47,4,68,0,61,-30,71,12,64,45,28,19,13,16,16,22,25,39,3,20,14,30,53,53,20,110
16.6125,42,35,14,-21,-8,3,-11,27,25,7,4,-52,-4,-7,21,14,1,-6,-2,-4,11,-5,-10,-22,7,11,-15,-24,-29,21,-15,-21,-3,-19,-16,-35,-37,-26,10,-10,15,-20,-12,-36,4,-30,-6,-11,-20,-30,-37,-32,-31,-29,-30,-21,-55,-37,-41,-31,-7,-14,-42,17
16.61875,-19,-26,-48,-78,-63,-46,-54,-41,-35,-53,-52,-105,-53,-56,-53,-49,-58,-64,-58,-56,-40,-69,-61,-68,-61,-55,-68,-70,-73,-36,-63,-65,-52,-67,-63,-78,-79,-59,-50,-51,-41,-83,-68,-44,-46,-53,-64,-56,-60,-72,-76,-71,-63,-60,-53,-60,-88,-69,-71,-58,-62,-73,-96,-48
16.625,-46,-41,-63,-86,-74,-65,-76,-54,-46,-57,-57,-106,-64,-72,-57,-52,-61,-65,-61,-59,-43,-80,-82,-91,-66,-61,-83,-88,-90,-43,-67,-79,-64,-75,-70,-87,-90,-77,-57,-52,-39,-61,-48,-56,-41,-43,-61,-53,-59,-64,-71,-61,-50,-46,-35,-54,-82,-60,-55,-35,-76,-82,-98,-44
16.63125,-60,-59,-77,-94,-76,-63,-72,-64,-55,-62,-58,-98,-49,-53,-60,-56,-59,-61,-51,-44,-28,-91,-82,-88,-68,-65,-94,-88,-82,-50,-80,-83,-79,-87,-77,-95,-87,-73,-61,-45,-38,-57,-61,-72,-51,-36,-70,-66,-71,-74,-77,-62,-55,-51,-42,-77,-103,-76,-71,-63,-78,-73,-84,-29
16.6375,-71,-74,-91,-100,-87,-67,-72,-79,-76,-84,-76,-123,-62,-62,-84,-81,-84,-88,-75,-69,-50,-105,-92,-100,-78,-75,-110,-98,-91,-67,-105,-103,-100,-112,-97,-112,-94,-81,-76,-52,-64,-45,-94,-46,-78,-70,-95,-93,-102,-105,-108,-102,-95,-89,-87,-97,-127,-107,-108,-103,-95,-91,-96,-45
16.64375,-86,-92,-109,-117,-98,-71,-65,-86,-87,-91,-78,-129,-66,-51,-87,-79,-87,-86,-73,-69,-45,-99,-95,-96,-74,-71,-106,-88,-82,-64,-105,-95,-92,-101,-82,-95,-70,-55,-69,-41,-62,-32,-72,-47,-55,-61,-61,-63,-70,-73,-78,-70,-62,-59,-59,-58,-91,-69,-68,-61,-89,-89,-89,-49
16.65,-69,-73,-83,-90,-67,-40,-34,-64,-63,-67,-49,-96,-41,-33,-60,-55,-62,-62,-51,-46,-30,-79,-72,-69,-68,-64,-90,-74,-59,-53,-84,-80,-74,-86,-70,-86,-62,-47,-57,-49,-34,-46,-46,-53,-31,-49,-32,-48,-59,-67,-74,-67,-61,-59,-54,-52,-84,-70,-72,-73,-68,-78,-83,-43
16.65625,-58,-65,-82,-95,-81,-60,-66,-50,-59,-69,-56,-115,-60,-63,-45,-53,-60,-68,-62,-61,-46,-87,-89,-104,-79,-73,-105,-96,-90,-49,-88,-96,-78,-95,-86,-96,-80,-63,-44,-37,-30,-77,-41,-31,-15,-50,-24,-35,-45,-53,-60,-55,-50,-44,-31,-26,-61,-44,-48,-36,-43,-58,-67,-24
16.6625,-38,-50,-74,-100,-84,-59,-70,-36,-43,-51,-45,-105,-48,-52,-28,-32,-35,-39,-37,-36,-22,-95,-87,-100,-61,-56,-104,-96,-91,-27,-74,-91,-76,-98,-88,-96,-82,-69,-31,-45,-18,-77,-31,-27,-12,-23,-32,-32,-40,-39,-43,-30,-24,-18,-6,-34,-62,-27,-24,-9,-32,-33,-35,-5
16.66875,-48,-58,-82,-115,-86,-59,-64,-58,-58,-62,-53,-101,-41,-49,-48,-45,-46,-46,-36,-33,-18,-106,-91,-99,-75,-70,-112,-103,-89,-51,-86,-92,-89,-106,-90,-101,-80,-69,-53,-45,-39,-32,-46,-53,-34,-22,-51,-53,-62,-54,-59,-49,-41,-39,-33,-60,-84,-52,-53,-48,-48,-44,-33,-26
16.675,-67,-78,-100,-127,-91,-63,-63,-74,-79,-79,-64,-111,-53,-54,-62,-67,-68,-65,-55,-54,-37,-105,-105,-119,-96,-92,-122,-116,-116,-68,-101,-105,-107,-116,-95,-103,-81,-77,-70,-44,-44,-59,-48,-60,-37,-55,-46,-50,-61,-55,-61,-55,-48,-46,-40,-50,-71,-46,-54,-40,-67,-64,-51,-51
16.68125,-64,-71,-91,-117,-80,-55,-57,-56,-60,-59,-36,-88,-37,-36,-39,-38,-40,-36,-29,-32,-15,-102,-87,-89,-75,-71,-99,-77,-83,-46,-69,-79,-80,-89,-69,-81,-58,-50,-51,-19,-23,-20,-42,-65,-17,-24,-20,-17,-26,-23,-30,-29,-28,-29,-25,-25,-46,-24,-41,-43,-55,-58,-52,-41
16.6875,-38,-36,-51,-67,-40,-21,-31,-38,-25,-25,-4,-62,-16,-15,-15,-11,-14,-14,-13,-22,-7,-78,-66,-65,-53,-49,-61,-46,-54,-28,-45,-45,-32,-41,-26,-47,-40,-28,-25,-7,0,3,-35,-32,2,-42,-3,1,-12,-12,-24,-29,-31,-40,-44,-7,-34,-20,-43,-54,-28,-39,-45,-10
16.69375,-9,-3,-10,-25,-10,-6,-22,-16,-7,-7,7,-46,-16,-18,0,-3,-10,-11,-13,-25,-15,-58,-52,-68,-29,-23,-32,-43,-63,-9,-16,-32,-5,-12,-11,-32,-39,-36,-6,-14,15,-29,-22,-31,15,-52,8,1,-20,-23,-34,-36,-39,-46,-47,-12,-40,-27,-46,-43,-16,-27,-33,4
16.7,-1,1,-13,-37,-27,-29,-40,-12,-15,-21,-9,-66,-39,-44,-9,-14,-25,-26,-29,-39,-30,-55,-52,-62,-32,-27,-37,-47,-56,-5,-31,-32,-7,-22,-22,-41,-44,-42,-7,-26,4,-66,-32,-32,8,-29,-12,-11,-29,-35,-41,-42,-41,-39,-33,-26,-54,-42,-49,-40,-28,-38,-30,-14
16.70625,-6,1,-15,-40,-31,-29,-40,-9,-13,-21,-10,-72,-33,-30,-12,-15,-27,-30,-23,-31,-15,-38,-56,-62,-27,-24,-38,-53,-60,-12,-35,-36,-4,-21,-22,-41,-48,-39,-13,-16,17,-21,-23,-37,9,-28,-21,-20,-40,-48,-48,-42,-36,-31,-24,-36,-65,-51,-45,-33,-45,-50,-36,-18
16.7125,-13,-11,-25,-42,-34,-32,-40,-15,-21,-33,-21,-83,-27,-25,-13,-18,-37,-40,-30,-33,-14,-45,-45,-61,-42,-37,-42,-59,-66,-26,-40,-49,-16,-31,-32,-54,-63,-55,-10,-30,26,-59,-31,-33,4,-36,-26,-27,-44,-58,-60,-53,-46,-44,-38,-51,-78,-63,-57,-50,-58,-55,-46,-21
16.71875,-21,-30,-43,-63,-52,-50,-65,-19,-33,-52,-41,-101,-51,-59,-22,-35,-53,-59,-51,-59,-46,-79,-60,-68,-55,-53,-53,-65,-72,-39,-56,-59,-35,-46,-41,-67,-76,-71,-24,-49,-22,-69,-33,-42,6,-64,-30,-33,-49,-68,-73,-73,-70,-74,-72,-63,-85,-73,-82,-76,-68,-69,-64,-38
16.725,-33,-36,-53,-69,-58,-52,-73,-37,-41,-60,-53,-105,-62,-70,-28,-39,-59,-68,-62,-71,-61,-68,-69,-78,-44,-43,-65,-78,-87,-33,-63,-74,-49,-62,-53,-76,-87,-83,-34,-60,-12,-77,-12,-59,9,-99,-29,-30,-42,-65,-73,-76,-79,-84,-80,-58,-77,-64,-83,-69,-66,-70,-72,-36
16.73125,-42,-44,-71,-92,-88,-81,-87,-41,-45,-70,-73,-131,-90,-84,-26,-39,-65,-80,-80,-89,-76,-82,-80,-92,-60,-61,-95,-96,-90,-48,-84,-97,-81,-95,-87,-105,-99,-79,-44,-62,-16,-67,-19,-63,-5,-97,-33,-36,-50,-74,-87,-88,-92,-92,-81,-62,-82,-75,-94,-78,-62,-67,-72,-33
16.7375,-59,-69,-100,-125,-123,-107,-93,-61,-68,-98,-103,-160,-112,-89,-45,-58,-91,-105,-104,-109,-83,-95,-88,-95,-91,-90,-115,-101,-82,-58,-96,-107,-97,-112,-99,-114,-92,-64,-50,-46,-20,-51,-26,-80,-10,-80,-40,-43,-66,-80,-95,-93,-93,-95,-78,-51,-76,-78,-97,-86,-57,-65,-69,-33
16.74375,-58,-78,-104,-126,-121,-105,-92,-70,-80,-103,-103,-158,-109,-94,-54,-70,-98,-108,-108,-109,-88,-93,-89,-97,-84,-84,-125,-116,-89,-49,-88,-123,-106,-124,-114,-125,-107,-74,-49,-70,-16,-129,-32,-42,-12,-87,-44,-53,-81,-89,-104,-99,-93,-92,-73,-48,-80,-74,-89,-66,-53,-67,-55,-29
16.75,-60,-81,-108,-129,-122,-107,-99,-68,-76,-100,-101,-157,-104,-95,-47,-65,-89,-99,-95,-96,-75,-97,-81,-86,-69,-67,-112,-107,-87,-36,-74,-98,-83,-100,-93,-105,-90,-61,-31,-68,-5,-87,-17,-36,8,-56,-14,-27,-54,-67,-81,-72,-69,-61,-38,-18,-55,-49,-59,-26,-34,-48,-14,-5
16.75625,-36,-53,-83,-101,-98,-82,-72,-53,-60,-88,-89,-142,-96,-86,-39,-56,-86,-97,-96,-97,-74,-81,-81,-88,-56,-55,-98,-95,-84,-30,-76,-91,-76,-89,-80,-94,-76,-55,-30,-53,2,-65,-25,-53,-18,-78,-30,-45,-76,-86,-108,-98,-96,-90,-73,-40,-79,-80,-91,-68,-35,-50,-7,-12
16.7625,-42,-66,-99,-109,-100,-81,-73,-54,-75,-103,-102,-151,-96,-77,-45,-61,-96,-106,-106,-105,-78,-62,-68,-76,-50,-50,-83,-70,-61,-34,-71,-78,-73,-80,-64,-79,-50,-32,-16,-20,2,-73,-44,-54,-22,-87,-21,-27,-55,-67,-87,-86,-86,-86,-76,-9,-48,-55,-80,-57,-32,-55,-24,-22
16.76875,-22,-46,-76,-91,-75,-56,-58,-28,-51,-73,-74,-130,-78,-73,-21,-35,-64,-75,-79,-82,-71,-59,-55,-59,-45,-43,-68,-53,-54,-26,-57,-61,-58,-69,-51,-68,-46,-37,-21,-34,-28,-88,-25,-43,6,-74,-10,-19,-47,-62,-76,-78,-79,-81,-70,-23,-57,-59,-77,-52,-33,-54,-38,-16
16.775,-40,-51,-72,-88,-77,-64,-71,-65,-65,-76,-72,-133,-88,-92,-47,-59,-76,-83,-88,-93,-86,-64,-67,-65,-54,-54,-83,-71,-54,-41,-77,-83,-70,-82,-67,-81,-67,-58,-38,-52,-21,-93,-18,-54,-13,-92,-34,-49,-77,-90,-100,-101,-98,-102,-95,-60,-87,-83,-101,-88,-59,-71,-61,-25
16.78125,-41,-49,-72,-87,-88,-76,-76,-58,-58,-70,-64,-134,-88,-84,-37,-51,-70,-79,-81,-92,-81,-43,-58,-58,-32,-33,-79,-65,-48,-12,-71,-67,-51,-65,-57,-70,-55,-41,-10,-24,18,-27,2,-53,16,-84,3,-14,-41,-53,-68,-78,-77,-88,-90,-22,-53,-54,-90,-98,-65,-77,-70,-19
16.7875,6,-4,-22,-37,-44,-34,-36,-14,-15,-25,-20,-92,-44,-36,-4,-14,-36,-46,-49,-59,-50,-25,-31,-37,1,1,-48,-42,-40,22,-28,-35,-15,-24,-20,-36,-28,-14,21,-2,40,-29,14,-41,16,-82,-11,-13,-32,-50,-61,-69,-71,-81,-82,-29,-58,-54,-89,-100,-54,-67,-69,-2
16.79375,30,20,7,-10,-8,-6,-13,3,1,-3,3,-64,-23,-26,3,3,-17,-24,-28,-42,-37,2,-11,-20,25,25,-16,-16,-20,43,2,-7,17,11,11,-7,-2,10,50,9,39,-51,36,-13,29,-51,-2,-1,-17,-30,-35,-48,-53,-67,-67,-23,-50,-41,-76,-94,-40,-53,-64,8
16.8,41,29,20,-1,-2,-9,-19,11,11,12,22,-61,-26,-37,8,15,-3,-11,-18,-40,-45,-5,-16,-29,14,14,-21,-22,-21,33,-13,-10,12,4,3,-18,-20,-13,34,-8,42,-64,43,-21,45,-55,12,9,-13,-18,-22,-40,-45,-67,-71,-11,-37,-34,-71,-97,-31,-47,-62,14
16.80625,28,25,18,1,3,-5,-27,5,15,21,32,-48,-20,-37,14,25,8,-4,-8,-29,-40,-1,-14,-21,7,7,-9,-12,-17,24,-15,-3,18,14,14,-8,-17,-10,30,-7,57,-56,48,-26,45,-53,10,12,-10,-16,-21,-37,-43,-62,-64,-9,-35,-32,-68,-80,-22,-41,-49,23
16.8125,32,30,23,3,11,8,-25,14,23,23,34,-39,-13,-40,21,33,12,2,-7,-24,-39,16,-7,-6,18,18,-3,-4,-8,33,-15,1,19,15,20,-3,-11,-10,42,-8,71,-46,56,-20,58,-46,24,21,3,-9,-11,-26,-31,-44,-43,-3,-28,-22,-50,-53,-20,-33,-25,27
16.81875,43,45,42,21,30,24,-14,41,49,55,67,-6,20,-13,49,59,44,39,27,14,-2,20,3,5,18,19,10,11,12,32,-12,21,37,37,39,14,1,-2,56,11,88,-8,63,-11,80,-14,56,48,29,18,24,11,9,-7,-11,16,-8,2,-18,-25,-11,-15,3,35
16.825,56,61,64,52,54,41,6,44,57,72,92,7,40,11,48,58,54,51,44,30,17,17,11,2,24,24,16,21,17,34,-16,17,36,37,42,18,14,18,35,29,43,15,34,2,36,-11,12,15,2,0,9,4,3,-8,-8,-13,-32,-8,-23,-30,-11,-4,13,38
16.83125,21,24,33,23,26,27,11,-18,11,28,50,-27,24,16,-3,14,14,17,14,12,11,18,11,4,19,20,8,16,17,8,-21,11,20,18,25,7,18,20,0,31,21,46,18,-1,9,-5,-20,-8,-20,-12,-8,-12,-12,-22,-22,-29,-42,-18,-41,-53,-23,-14,-5,17
16.8375,3,6,16,9,14,20,12,-30,-1,17,32,-41,9,12,-8,10,9,12,5,-1,0,25,-1,-8,16,17,8,3,-1,14,-24,6,25,24,25,5,7,7,10,18,31,-15,21,14,20,-23,-1,6,-5,3,3,-7,-15,-30,-27,-13,-22,2,-39,-57,-29,-23,-31,-2
16.84375,22,25,29,18,18,17,1,-8,21,36,50,-44,4,-8,14,31,30,31,13,1,-7,41,14,1,29,32,10,10,1,37,-16,2,33,21,22,3,2,10,34,6,56,-51,29,-15,36,-24,20,25,16,22,22,7,-4,-23,-23,13,4,32,-17,-33,-5,1,-27,20
16.85,38,34,27,11,11,7,-14,5,27,38,48,-47,-3,-20,25,40,37,35,15,1,-12,18,17,3,23,28,3,2,-1,41,2,5,36,18,16,0,-4,-1,46,-7,59,-43,36,3,50,-30,29,33,26,32,28,14,-5,-25,-31,18,8,37,-17,-34,24,31,-8,54
16.85625,49,44,39,22,15,10,-14,11,34,43,49,-41,-6,-24,31,42,39,36,16,-5,-24,35,27,16,48,49,21,10,12,59,22,14,49,32,27,12,4,-1,48,-13,62,-33,53,-3,43,-58,21,21,11,18,12,-6,-28,-48,-56,1,-13,15,-37,-60,24,29,-14,52
16.8625,43,37,33,3,1,0,-22,-2,20,26,35,-58,-21,-33,14,23,20,13,-3,-21,-37,48,28,16,53,56,21,10,3,61,18,13,42,21,22,8,1,-4,46,-12,56,-33,40,-14,33,-40,7,5,-7,-1,-3,-17,-31,-45,-43,-13,-28,4,-42,-54,2,11,-35,37
16.86875,42,30,22,-12,-6,0,-14,-10,10,11,20,-55,-20,-31,0,6,2,-1,-13,-27,-33,51,33,20,47,49,17,13,7,48,15,15,35,15,20,5,6,-1,25,-7,27,-44,29,-3,8,-37,-16,-18,-33,-27,-25,-37,-45,-55,-48,-36,-54,-26,-62,-68,-24,-14,-58,18
16.875,31,24,14,-17,-3,6,-4,-18,-3,-1,5,-64,-25,-31,-13,-11,-15,-22,-30,-41,-40,34,26,21,31,35,17,20,22,36,23,14,38,18,26,14,18,14,26,6,36,-1,15,-7,1,-47,-20,-31,-52,-53,-50,-61,-67,-68,-56,-56,-76,-58,-81,-83,-51,-46,-88,-18
16.88125,39,29,14,-17,-4,14,11,-11,-7,-8,-6,-70,-18,-8,-21,-21,-31,-32,-36,-41,-32,40,23,25,42,44,17,24,26,46,23,20,34,16,25,13,23,17,25,25,1,32,3,1,-16,-31,-47,-53,-70,-69,-55,-56,-52,-48,-34,-84,-100,-67,-67,-54,-79,-65,-92,-43
16.8875,23,14,0,-29,-22,2,4,-46,-29,-29,-24,-86,-21,-10,-56,-44,-50,-50,-44,-45,-33,54,7,1,37,41,-13,-6,-4,34,2,-14,7,-20,-13,-21,-9,-12,-6,-1,-8,-46,-7,10,-24,-39,-66,-70,-90,-87,-69,-68,-55,-56,-53,-84,-110,-78,-77,-74,-100,-76,-90,-67
16.89375,-4,-13,-25,-55,-54,-25,-17,-59,-39,-38,-35,-96,-29,-21,-50,-42,-53,-49,-41,-43,-29,-10,-15,-12,-6,-3,-38,-28,-9,11,-27,-36,-13,-36,-29,-37,-21,-17,-4,-1,15,-33,-12,12,-6,-34,-34,-45,-67,-64,-51,-46,-36,-39,-38,-54,-79,-49,-52,-49,-91,-65,-78,-64
16.9,1,-14,-27,-51,-45,-17,-7,-42,-25,-27,-24,-76,-13,-4,-29,-25,-34,-32,-25,-23,-13,-23,-10,-14,-15,-11,-43,-27,-13,2,-30,-39,-23,-42,-35,-45,-25,-18,5,6,22,-8,-16,1,-2,-8,-23,-27,-41,-42,-31,-17,-11,-13,-5,-42,-59,-18,-16,-8,-59,-30,-42,-26
16.90625,7,-13,-33,-53,-51,-21,-14,-32,-19,-22,-18,-77,-11,-4,-20,-12,-21,-20,-11,-7,-1,-1,-16,-21,4,6,-42,-29,-22,17,-12,-39,-18,-36,-30,-39,-21,-23,3,5,17,-23,-6,0,1,-1,-19,-13,-20,-16,-3,12,13,6,10,-18,-34,15,13,13,-21,15,5,24
16.9125,19,3,-10,-31,-22,1,0,-19,4,10,18,-48,14,15,-1,13,13,17,23,22,22,8,-9,-6,18,21,-26,-10,4,21,-12,-20,-8,-19,-7,-20,6,-5,5,27,23,32,-4,-23,12,-7,-3,5,-3,7,20,32,32,18,16,-1,-17,32,20,10,1,37,26,41
16.91875,12,-3,-14,-33,-14,11,14,-27,3,8,21,-44,18,21,-3,12,16,20,25,23,20,-6,-24,-14,-7,-3,-39,-17,4,2,-35,-32,-23,-33,-20,-34,-4,-18,-2,17,22,2,-11,6,10,1,-4,2,-11,3,14,20,19,4,-2,-6,-24,18,-1,-17,-2,18,5,18
16.925,-2,-11,-27,-52,-33,-11,-10,-32,-7,-6,5,-66,0,-2,-10,2,5,6,10,5,3,-8,-36,-28,-13,-10,-50,-33,-14,-11,-54,-52,-36,-42,-33,-45,-18,-30,-20,0,12,-5,-11,17,6,-14,6,2,-14,-4,4,4,3,-12,-26,-6,-21,9,-18,-34,-15,-13,-32,-4
16.93125,-15,-14,-25,-52,-33,-5,-1,-25,1,2,14,-54,14,26,4,14,16,22,24,21,25,-18,-36,-33,-13,-8,-45,-29,-17,-10,-49,-36,-25,-26,-19,-33,-5,-13,-11,20,32,23,-10,9,13,2,17,20,11,21,32,30,26,14,-2,7,-4,30,8,-3,-15,-11,-31,10
16.9375,1,3,-3,-23,-15,10,4,-6,17,18,34,-38,16,17,5,16,24,32,28,22,18,4,-24,-17,-5,-2,-37,-26,-10,-15,-37,-33,-16,-17,-14,-28,-7,-25,-6,3,11,-62,-45,22,-18,5,-21,-3,-10,5,16,16,10,-3,-8,-13,-24,16,-5,-13,-16,3,-15,31
16.94375,2,0,-4,-15,-14,7,2,-17,9,13,28,-37,12,4,-4,11,17,24,24,19,20,-9,-18,-10,-2,3,-22,-5,21,-7,-28,-18,-1,2,10,-4,27,12,-4,39,-6,10,-23,32,3,33,-6,9,6,19,34,36,34,23,17,1,-6,36,21,15,-10,21,5,43
16.95,15,27,26,25,32,58,58,-7,36,48,69,10,59,61,22,41,48,63,63,59,61,32,23,37,30,33,15,41,65,19,-9,19,23,31,45,26,67,43,13,70,37,51,-8,31,23,49,10,18,13,26,43,48,44,33,27,-2,-8,31,22,15,-6,28,9,35
16.95625,10,16,18,27,32,55,53,-18,20,32,54,1,49,48,-4,15,28,43,42,39,42,42,29,50,24,27,6,44,75,0,-15,2,1,14,36,19,58,42,-12,60,-4,35,-31,25,-16,33,-22,-12,-25,-3,15,21,22,14,8,-20,-29,8,1,-6,-14,11,-10,20
16.9625,-1,10,19,47,42,65,58,-29,13,29,53,3,59,58,-9,14,26,41,50,52,59,66,43,67,65,65,39,76,113,29,23,40,46,62,82,62,87,65,15,73,27,46,-1,37,17,68,14,27,22,38,57,65,69,61,54,29,25,59,50,49,1,19,0,40
16.96875,59,80,88,121,107,113,83,33,74,91,112,60,105,95,54,77,86,99,105,107,108,124,84,98,130,131,84,96,107,85,74,78,99,110,117,91,81,39,55,61,65,72,15,36,52,78,49,61,53,67,82,90,89,76,60,44,39,72,64,55,31,51,33,77
16.975,61,79,89,120,95,95,70,21,62,81,103,51,90,92,35,58,70,79,80,79,88,126,71,85,115,115,58,78,117,46,40,39,63,77,83,62,78,76,3,81,25,111,-32,36,3,37,5,12,4,18,32,36,39,31,10,2,-7,21,11,-8,23,37,12,52
16.98125,11,37,52,80,56,76,82,-22,22,44,63,18,72,94,-1,25,36,48,53,57,80,165,116,145,131,129,65,111,189,29,32,49,67,79,87,71,105,119,2,104,29,76,-36,39,-4,71,3,21,21,35,50,55,58,49,35,17,13,46,34,14,7,15,-17,21
16.9875,51,78,84,107,81,98,94,27,59,85,101,42,92,87,39,64,78,93,89,86,93,224,167,198,210,204,111,152,229,92,97,90,112,119,125,111,134,138,66,112,55,60,-16,67,21,97,22,48,51,69,81,81,78,67,50,31,30,67,52,34,10,19,-5,29
16.99375,91,100,107,125,101,115,111,40,76,99,117,44,96,93,46,70,90,99,92,84,93,325,240,281,269,259,140,196,315,116,113,97,111,123,138,119,157,176,41,124,13,72,-29,90,7,90,11,34,33,50,60,61,58,53,40,18,12,41,29,14,11,19,8,29
20.79375,52,60,45,51,7,13,-1,32,23,10,-7,-14,-23,-20,4,-2,-14,-30,-39,-39,-41,-92,-51,-86,-37,-26,21,0,-62,40,31,34,53,46,34,18,13,20,45,-8,59,-30,73,-5,26,-43,31,11,8,-21,-33,-37,-36,-35,-19,37,16,-22,-26,-17,16,-5,-37,-7
20.8,70,64,46,57,15,24,14,58,30,12,-5,-13,-18,-17,25,7,-7,-27,-31,-32,-32,-100,-40,-68,-33,-23,27,17,-48,52,30,49,50,49,44,23,31,33,62,10,66,-15,83,11,52,-13,64,30,22,-10,-23,-23,-21,-14,5,59,30,-8,-11,7,50,20,-14,36
20.80625,63,53,35,49,12,24,15,41,19,1,-15,-17,-17,-10,13,-5,-15,-37,-32,-31,-25,-102,-55,-81,-37,-30,13,3,-52,40,12,31,35,33,29,10,27,37,32,20,39,34,75,18,31,-15,24,0,-2,-31,-39,-40,-35,-25,-1,17,-6,-33,-30,-12,46,21,-5,38
20.8125,30,18,2,23,-16,3,3,2,-14,-32,-47,-48,-40,-20,-25,-34,-51,-71,-65,-61,-48,-138,-91,-115,-80,-70,-27,-31,-78,-16,-32,-13,-18,-20,-17,-35,-11,1,-27,-14,-5,-1,6,-3,-23,-54,-31,-48,-48,-74,-80,-83,-81,-68,-43,-33,-48,-70,-71,-54,-1,-17,-38,-4
20.81875,-39,-51,-69,-42,-75,-50,-43,-50,-67,-85,-99,-100,-86,-55,-67,-72,-92,-111,-103,-98,-79,-185,-130,-156,-136,-128,-83,-82,-124,-81,-82,-64,-84,-80,-70,-89,-55,-30,-68,-41,-64,-26,-64,-32,-78,-70,-73,-76,-67,-87,-96,-99,-98,-82,-55,-60,-69,-84,-80,-64,-48,-58,-82,-52
20.825,-85,-101,-112,-85,-111,-81,-63,-95,-107,-115,-120,-126,-106,-67,-105,-103,-115,-121,-117,-110,-90,-213,-157,-181,-171,-161,-114,-107,-147,-102,-129,-99,-114,-107,-98,-113,-76,-39,-94,-56,-84,-74,-90,-33,-103,-76,-96,-99,-82,-98,-106,-109,-105,-90,-58,-77,-81,-96,-87,-70,-73,-76,-107,-80
20.83125,-90,-109,-124,-101,-128,-100,-80,-105,-129,-128,-137,-139,-120,-84,-117,-121,-126,-129,-126,-116,-97,-204,-168,-191,-157,-149,-121,-118,-155,-91,-122,-108,-116,-118,-116,-128,-93,-51,-80,-69,-68,-80,-77,-25,-102,-65,-101,-114,-101,-118,-120,-115,-109,-92,-67,-100,-105,-110,-89,-70,-87,-80,-107,-93
20.8375,-87,-111,-135,-123,-155,-131,-106,-112,-144,-145,-159,-152,-138,-97,-138,-145,-146,-148,-140,-124,-97,-209,-162,-197,-156,-147,-131,-130,-171,-91,-120,-115,-112,-122,-126,-135,-101,-64,-87,-73,-97,-60,-69,-9,-122,-70,-129,-138,-125,-140,-130,-116,-105,-83,-60,-125,-129,-127,-81,-61,-98,-81,-91,-91
20.84375,-81,-95,-117,-112,-144,-120,-93,-100,-125,-129,-141,-134,-130,-83,-137,-139,-143,-140,-133,-117,-89,-216,-149,-177,-159,-149,-114,-113,-147,-84,-122,-100,-92,-100,-103,-115,-79,-54,-85,-48,-93,-21,-77,-15,-121,-73,-132,-132,-118,-135,-126,-112,-98,-82,-55,-119,-120,-120,-78,-64,-107,-84,-82,-87
20.85,-70,-77,-93,-89,-117,-90,-65,-90,-103,-110,-119,-121,-111,-65,-124,-125,-127,-129,-121,-111,-86,-197,-136,-159,-145,-135,-93,-92,-133,-76,-111,-78,-80,-81,-81,-100,-61,-40,-84,-34,-95,-12,-76,-12,-109,-73,-116,-116,-103,-121,-117,-105,-95,-83,-61,-102,-105,-111,-79,-71,-101,-84,-86,-87
20.85625,-76,-78,-87,-71,-96,-64,-46,-95,-101,-102,-103,-98,-90,-59,-115,-114,-115,-117,-108,-102,-83,-181,-129,-157,-142,-132,-79,-76,-128,-76,-114,-68,-75,-68,-63,-81,-45,-24,-75,-32,-70,-52,-52,-3,-86,-72,-84,-97,-89,-108,-108,-105,-100,-94,-76,-88,-94,-110,-92,-100,-88,-87,-111,-99
20.8625,-53,-61,-74,-50,-79,-41,-31,-61,-76,-82,-87,-71,-69,-48,-81,-90,-95,-98,-92,-88,-77,-162,-110,-130,-112,-104,-51,-48,-97,-51,-91,-42,-51,-41,-35,-54,-26,-8,-41,-21,-38,-30,-30,-16,-58,-72,-66,-74,-65,-83,-87,-86,-83,-83,-69,-65,-70,-84,-75,-86,-67,-80,-120,-95
20.86875,-24,-34,-43,-22,-48,-21,-23,-40,-56,-60,-69,-53,-53,-42,-68,-77,-76,-81,-73,-71,-67,-157,-101,-124,-115,-104,-41,-40,-99,-47,-74,-32,-40,-31,-30,-50,-27,-18,-35,-31,-30,-60,-36,-34,-69,-67,-75,-80,-67,-82,-86,-85,-81,-81,-62,-72,-78,-88,-74,-76,-55,-69,-100,-87
20.875,-38,-49,-55,-34,-62,-40,-42,-55,-74,-74,-84,-77,-69,-59,-92,-94,-92,-96,-90,-85,-74,-186,-129,-164,-139,-129,-72,-77,-146,-64,-110,-67,-64,-60,-60,-77,-53,-37,-55,-43,-54,-44,-68,-16,-99,-77,-94,-99,-85,-102,-103,-97,-89,-81,-57,-77,-84,-91,-68,-50,-55,-58,-65,-62
20.88125,-52,-68,-77,-56,-83,-53,-42,-63,-85,-88,-95,-85,-73,-53,-97,-101,-101,-106,-99,-88,-75,-211,-145,-174,-149,-140,-89,-92,-147,-72,-142,-75,-76,-71,-72,-90,-52,-33,-69,-37,-78,-21,-63,-14,-92,-65,-86,-91,-83,-106,-111,-106,-99,-85,-51,-71,-84,-105,-78,-61,-60,-60,-47,-61
20.8875,-62,-74,-81,-58,-86,-62,-53,-66,-90,-91,-96,-98,-92,-77,-93,-103,-105,-116,-117,-112,-104,-181,-134,-161,-128,-120,-81,-84,-128,-65,-128,-73,-68,-64,-68,-86,-55,-27,-70,-54,-70,-74,-46,-11,-84,-93,-84,-93,-91,-116,-126,-131,-124,-111,-79,-79,-92,-127,-108,-90,-76,-91,-73,-100
20.89375,-56,-74,-80,-51,-84,-68,-60,-76,-95,-95,-96,-103,-99,-82,-92,-102,-107,-115,-118,-118,-105,-149,-123,-147,-112,-104,-72,-80,-126,-53,-111,-77,-65,-60,-67,-87,-63,-33,-58,-49,-50,-32,-27,-3,-70,-82,-68,-83,-80,-106,-117,-122,-111,-96,-61,-61,-79,-120,-95,-66,-80,-105,-89,-115
20.9,-53,-78,-84,-53,-87,-73,-60,-71,-97,-94,-95,-87,-91,-67,-86,-99,-101,-108,-105,-104,-90,-182,-129,-153,-131,-124,-88,-93,-138,-55,-106,-82,-78,-73,-82,-101,-72,-34,-50,-46,-53,-58,-13,-22,-57,-67,-52,-74,-73,-98,-104,-108,-98,-86,-53,-55,-78,-118,-91,-68,-71,-97,-83,-96
20.90625,-52,-81,-87,-60,-92,-75,-68,-74,-98,-91,-97,-78,-86,-70,-91,-103,-99,-104,-99,-95,-86,-187,-137,-159,-126,-118,-98,-101,-136,-46,-101,-93,-82,-82,-93,-106,-81,-43,-48,-49,-42,-35,-20,-25,-69,-73,-73,-93,-87,-110,-107,-110,-99,-90,-64,-80,-98,-121,-98,-81,-76,-93,-89,-85
20.9125,-46,-75,-88,-72,-108,-79,-69,-73,-97,-93,-99,-86,-81,-65,-93,-103,-100,-102,-93,-87,-77,-183,-133,-158,-121,-110,-96,-99,-136,-41,-89,-89,-79,-82,-94,-106,-79,-43,-35,-52,-28,-55,-35,-15,-64,-75,-67,-84,-79,-99,-95,-95,-82,-77,-55,-73,-86,-105,-80,-70,-84,-89,-96,-84
20.91875,-31,-54,-72,-64,-98,-79,-71,-48,-73,-74,-86,-76,-80,-64,-70,-84,-82,-90,-81,-78,-72,-172,-125,-156,-111,-105,-86,-88,-134,-34,-83,-71,-65,-68,-78,-92,-69,-37,-24,-54,-20,-47,-11,-26,-33,-74,-40,-63,-62,-85,-86,-88,-80,-78,-56,-57,-71,-99,-77,-68,-82,-79,-92,-80
20.925,-15,-33,-48,-37,-73,-66,-65,-18,-43,-49,-62,-65,-78,-64,-43,-61,-60,-76,-74,-74,-75,-137,-107,-134,-89,-82,-61,-62,-101,-22,-71,-54,-36,-42,-53,-70,-50,-17,-18,-46,-2,-37,8,-31,-30,-71,-32,-42,-35,-63,-71,-80,-78,-77,-53,-26,-41,-79,-67,-54,-57,-56,-76,-59
20.93125,-19,-22,-27,-12,-52,-51,-56,-16,-27,-27,-30,-51,-65,-64,-40,-41,-37,-51,-56,-63,-73,-187,-143,-159,-186,-169,-71,-69,-110,-129,-133,-55,-49,-42,-50,-76,-46,-17,-92,-43,-53,-53,-62,-14,-64,-65,-31,-21,-4,-23,-29,-44,-47,-50,-28,7,2,-30,-30,-11,-13,-16,-36,-22
20.9375,-52,-14,-4,21,-16,-17,-39,-8,4,18,23,-4,-24,-39,-12,3,11,3,-12,-23,-42,-275,-197,-221,-215,-201,-76,-87,-158,-100,-121,-38,-31,-25,-36,-55,-45,-32,-28,-43,-15,-41,-3,-21,-4,-55,14,12,24,-5,-16,-42,-46,-52,-27,27,16,-29,-39,-22,23,13,-15,-6
20.94375,37,26,9,16,-25,-25,-49,31,12,6,-8,-35,-48,-56,1,-5,-12,-37,-54,-63,-72,-107,-80,-129,2,1,-51,-68,-125,80,-12,-39,-20,-32,-48,-60,-64,-36,51,-63,35,-59,45,-34,5,-87,2,-16,-17,-51,-73,-93,-96,-94,-61,1,-19,-69,-80,-55,16,1,-28,-18
20.95,31,-15,-45,-40,-81,-80,-92,-4,-37,-55,-77,-90,-102,-99,-33,-51,-65,-91,-100,-105,-106,-106,-91,-137,-20,-13,-82,-100,-151,45,-45,-66,-53,-67,-81,-96,-107,-77,17,-92,17,-96,15,-70,-11,-91,-3,-23,-22,-50,-72,-84,-85,-84,-49,-6,-20,-61,-65,-41,-11,-19,-36,-26
20.95625,23,-13,-40,-32,-77,-75,-98,19,-16,-40,-62,-72,-86,-92,-5,-28,-45,-68,-76,-82,-92,-135,-110,-158,-39,-37,-77,-106,-179,58,-36,-52,-35,-50,-67,-80,-102,-89,49,-92,43,-83,65,-68,30,-90,26,-4,-4,-40,-64,-79,-82,-88,-54,-5,-20,-64,-72,-63,-31,-39,-47,-43
20.9625,52,-1,-35,-33,-78,-67,-95,33,-7,-44,-71,-80,-87,-97,-1,-32,-53,-80,-88,-93,-105,-98,-84,-133,2,0,-72,-92,-161,79,-34,-51,-48,-61,-70,-84,-90,-81,51,-95,49,-71,60,-55,7,-105,-5,-27,-26,-57,-74,-88,-90,-93,-62,-17,-35,-67,-72,-58,-39,-44,-46,-35
20.96875,19,-40,-66,-49,-86,-66,-86,-7,-42,-67,-85,-85,-86,-93,-34,-55,-70,-86,-89,-92,-103,-144,-111,-150,-55,-52,-91,-97,-161,16,-93,-63,-76,-77,-78,-99,-82,-90,-1,-91,5,-95,14,-48,-26,-108,-18,-41,-37,-61,-70,-78,-75,-78,-53,-19,-44,-64,-63,-46,-35,-35,-36,-22
20.975,-18,-66,-76,-48,-77,-49,-67,-31,-64,-70,-78,-67,-67,-76,-53,-67,-73,-81,-80,-79,-82,-181,-129,-162,-90,-88,-98,-99,-164,-13,-116,-65,-81,-80,-74,-91,-63,-72,-17,-65,-7,-36,28,-48,-36,-84,-26,-55,-50,-69,-75,-80,-70,-70,-43,-37,-62,-73,-58,-46,-39,-34,-39,-34
20.98125,-6,-59,-71,-51,-75,-40,-50,-22,-61,-68,-71,-65,-62,-59,-53,-66,-71,-78,-80,-76,-74,-145,-109,-144,-67,-64,-90,-91,-156,8,-97,-57,-72,-81,-74,-89,-68,-76,-4,-69,-6,-41,17,-54,-32,-96,-29,-52,-48,-68,-71,-78,-72,-72,-46,-42,-61,-73,-56,-51,-48,-36,-44,-43
20.9875,-3,-52,-74,-69,-95,-64,-82,-24,-51,-66,-80,-83,-83,-89,-52,-64,-68,-78,-85,-85,-92,-169,-135,-175,-74,-70,-110,-118,-180,14,-98,-73,-76,-93,-98,-104,-97,-101,3,-93,0,-111,34,-56,-17,-96,-15,-40,-34,-52,-54,-60,-58,-56,-31,-16,-40,-49,-36,-17,-36,-18,-25,-8
20.99375,29,-9,-35,-43,-74,-52,-75,13,-1,-11,-31,-33,-56,-69,-8,-12,-15,-25,-33,-39,-49,-139,-96,-127,-32,-30,-65,-80,-141,66,-33,-30,-18,-38,-51,-55,-63,-78,67,-63,65,-40,78,-14,27,-46,34,13,24,2,-1,-12,-14,-12,10,29,12,-11,-4,2,3,16,5,25
21.0,88,46,16,10,-30,-19,-45,68,46,36,16,3,-21,-32,28,25,23,10,-3,-10,-21,-108,-90,-137,-1,0,-52,-78,-152,86,-12,-12,-4,-26,-43,-54,-69,-82,76,-62,64,-40,58,-12,26,-32,34,21,37,14,11,-4,-7,-5,11,29,20,-3,-2,-9,30,32,11,20
21.00625,81,45,13,5,-27,-15,-42,61,47,38,23,5,-8,-21,25,29,35,22,11,5,-11,-100,-88,-142,-8,-7,-60,-78,-155,76,-14,-16,-11,-34,-46,-53,-63,-77,55,-52,30,-4,65,-21,26,-47,33,32,55,37,35,22,19,10,13,52,43,27,23,17,44,42,20,15
21.0125,73,51,26,16,-9,7,-24,51,61,63,56,32,23,8,33,49,64,60,48,40,18,-131,-93,-135,-27,-24,-58,-75,-143,78,-10,-4,-4,-22,-33,-44,-56,-75,57,-41,60,6,85,-9,41,-22,48,52,84,64,64,61,56,49,61,69,62,58,65,67,61,66,58,39
21.01875,76,56,33,24,2,14,-28,53,67,70,63,39,32,2,37,57,71,66,54,45,18,-132,-112,-153,-30,-30,-70,-90,-156,74,-7,-7,-16,-32,-41,-53,-64,-84,54,-57,64,-51,78,-30,38,2,45,48,83,58,59,59,54,49,61,59,53,49,70,73,63,78,92,53
21.025,79,58,31,21,5,17,-31,59,66,68,59,42,31,-10,43,55,68,59,50,42,16,-120,-93,-143,-20,-17,-56,-72,-144,84,7,3,-2,-21,-29,-35,-48,-69,72,-52,68,-50,90,10,41,0,59,52,80,52,52,52,52,47,59,62,55,43,71,74,56,70,98,51
21.03125,100,74,48,39,15,25,-24,82,77,77,65,45,33,-5,61,66,71,62,51,46,21,-74,-60,-116,16,16,-22,-43,-125,105,28,30,29,11,-3,-15,-31,-46,100,-39,98,-20,97,16,84,8,89,83,106,80,79,76,74,65,73,93,93,78,93,97,64,73,98,58
21.0375,124,103,81,71,47,53,8,102,104,108,98,71,59,28,86,95,103,97,84,76,45,-55,-32,-80,37,40,6,-12,-97,117,43,54,50,34,21,6,-7,-29,106,-17,103,8,111,-5,76,10,82,97,121,111,106,95,85,69,71,111,115,105,101,98,92,92,106,79
21.04375,117,96,77,71,50,55,13,97,97,107,100,61,55,24,81,93,107,99,83,71,35,-74,-50,-91,17,18,-10,-23,-98,103,15,35,30,13,2,-10,-15,-30,94,-21,97,-4,88,-16,46,-3,74,89,114,105,96,84,70,52,56,103,106,101,88,84,110,102,108,90
21.05,92,64,42,41,16,25,-12,69,60,70,62,25,27,1,50,61,71,63,54,44,11,-111,-87,-132,-18,-17,-55,-67,-142,64,-22,-1,-16,-28,-38,-52,-48,-62,46,-47,18,-8,47,-1,23,-16,56,58,81,69,67,60,48,35,43,82,79,77,68,72,100,91,93,72
21.05625,35,15,5,12,-11,2,-29,5,13,33,33,11,13,-8,14,22,37,39,37,32,5,-140,-111,-156,-56,-54,-75,-84,-149,34,-65,-20,-37,-42,-48,-60,-58,-80,14,-53,28,-7,54,5,31,-24,53,46,70,57,61,57,46,35,41,87,79,74,64,66,83,79,70,56
21.0625,26,11,1,8,-8,6,-24,3,12,33,31,17,17,2,24,26,41,44,42,42,20,-129,-87,-136,-49,-48,-65,-69,-142,36,-58,-14,-32,-41,-42,-55,-47,-69,24,-43,43,15,60,-3,39,-21,72,59,79,68,71,68,60,52,56,98,88,84,78,81,89,92,69,76
21.06875,26,8,-3,1,-16,-3,-24,0,10,22,17,4,7,7,16,14,32,33,30,30,16,-131,-93,-140,-63,-58,-72,-73,-148,17,-66,-23,-43,-50,-53,-67,-59,-76,5,-56,22,-43,53,-10,29,-22,53,37,52,43,50,49,45,36,45,68,59,61,55,55,82,95,68,83
21.075,14,1,-7,-6,-30,-21,-46,-7,7,18,14,-10,-11,-24,5,9,24,32,23,21,5,-127,-97,-142,-62,-58,-67,-68,-142,16,-60,-24,-34,-41,-47,-59,-59,-76,10,-63,38,-58,54,-10,31,7,55,42,59,48,60,61,60,53,73,80,70,72,69,72,74,99,74,96
21.08125,43,32,24,18,-4,3,-24,24,37,45,38,20,17,6,25,30,44,49,46,49,35,-113,-67,-116,-43,-39,-38,-44,-121,36,-26,3,-4,-17,-25,-39,-44,-63,32,-44,59,-14,47,-10,27,18,39,26,43,30,46,46,46,41,50,35,32,31,36,19,51,79,56,62
21.0875,39,21,8,5,-21,-10,-36,4,11,14,6,-2,-1,-2,-15,-7,5,7,11,13,6,-158,-111,-158,-80,-74,-75,-83,-156,7,-58,-24,-35,-51,-55,-64,-73,-82,16,-64,15,-14,21,8,-16,-34,-9,-10,16,-6,7,3,3,-6,-2,12,7,-5,-5,-29,11,25,-4,-18
21.09375,40,26,10,2,-15,-1,-32,22,27,24,14,7,5,3,2,15,19,18,22,24,12,-139,-95,-133,-49,-46,-51,-57,-129,38,-31,6,-6,-17,-18,-26,-33,-37,34,-33,17,11,32,8,9,5,15,22,48,24,33,30,33,26,37,40,34,27,32,23,7,14,-18,-32
21.1,56,46,36,31,23,35,1,25,39,41,38,25,29,17,11,21,31,29,31,35,22,-113,-80,-121,-41,-36,-41,-41,-117,31,-21,17,-8,-16,-12,-25,-22,-29,13,-33,13,-12,28,10,10,2,7,8,31,10,24,20,23,20,32,16,13,13,23,19,13,26,3,-11
21.10625,32,20,13,24,14,30,-4,-4,11,15,20,13,22,10,-9,2,9,15,21,23,14,-99,-78,-118,-45,-43,-43,-39,-115,29,-13,14,-10,-14,-8,-17,-14,-27,20,-32,19,2,43,-18,25,-9,17,18,39,23,38,34,35,30,36,34,40,38,44,37,22,45,29,6
21.1125,43,32,29,45,32,53,21,20,33,43,46,46,53,47,24,33,43,50,57,63,50,-97,-62,-107,-44,-39,-28,-26,-106,39,-35,27,1,-3,4,-7,0,-17,25,-18,41,11,39,7,41,9,46,52,80,67,80,78,76,63,65,74,78,87,86,75,58,83,74,36
21.11875,34,25,23,28,23,48,16,17,31,42,47,52,56,39,28,42,55,64,68,74,54,-143,-95,-133,-68,-61,-50,-45,-126,21,-45,13,-18,-23,-14,-20,-17,-39,17,-35,36,-6,21,18,41,26,65,72,99,92,103,96,90,73,74,105,107,114,98,83,101,118,110,65
21.125,52,43,33,33,29,51,17,48,56,63,65,71,67,44,63,76,86,92,91,92,68,-124,-77,-114,-49,-45,-35,-26,-109,49,-9,27,5,-4,3,2,1,-28,55,-14,75,45,55,8,69,23,98,105,130,120,133,118,108,87,77,120,128,134,115,97,129,134,128,72
21.13125,86,73,55,48,37,59,27,79,79,81,79,72,76,60,79,89,101,108,104,102,75,-117,-69,-105,-43,-39,-30,-26,-102,52,4,32,12,-5,-1,-1,-1,-20,61,-12,64,30,31,9,47,19,67,90,116,116,135,125,113,91,82,99,109,128,119,102,125,137,133,76
21.1375,84,69,53,42,32,49,16,68,70,76,80,74,69,43,59,79,96,108,105,100,67,-91,-51,-89,-17,-14,-18,-23,-96,56,18,36,25,5,6,4,-4,-22,64,-22,43,-11,51,21,57,22,73,89,110,121,139,129,118,94,86,111,119,130,123,110,115,132,132,79
21.14375,84,79,70,60,42,55,19,68,79,93,97,87,72,44,67,87,104,118,110,102,67,-97,-41,-74,-30,-22,-7,-11,-82,55,2,37,32,12,13,7,-2,-20,56,-25,58,-11,61,11,70,14,85,91,111,114,129,115,101,78,73,118,119,121,111,99,109,119,122,64
21.15,69,73,62,52,31,40,4,55,73,79,77,69,51,22,59,76,91,101,92,80,45,-96,-49,-92,-31,-24,-1,-12,-96,52,3,44,39,20,17,11,-1,-23,46,-25,78,6,49,-8,65,16,86,98,121,121,131,114,100,78,73,131,134,129,113,106,121,117,114,63
21.15625,92,99,87,74,58,65,26,82,98,103,97,96,73,48,80,101,111,120,110,95,64,-80,-18,-63,-10,-2,34,22,-70,77,29,74,70,56,53,45,34,1,79,-2,78,27,61,15,67,5,85,99,126,125,139,117,103,80,73,114,121,121,109,101,125,119,112,69
21.1625,111,118,105,97,77,83,49,93,108,118,117,118,83,52,72,101,117,129,117,101,63,-40,-2,-48,10,18,52,39,-47,77,38,88,80,70,67,57,49,9,75,4,65,4,43,22,50,25,58,81,109,113,136,117,105,84,81,79,97,110,106,101,99,105,114,61
21.16875,100,110,108,109,87,91,50,75,100,119,126,124,91,46,55,91,113,128,117,100,65,-55,7,-27,-3,7,59,46,-33,58,27,92,81,79,72,54,49,13,53,6,54,14,18,18,37,33,42,69,97,101,122,107,98,79,76,73,84,95,94,87,68,81,110,36
21.175,80,93,102,102,84,83,42,63,88,108,110,102,77,42,52,79,99,108,100,84,58,-57,11,-24,-4,5,59,39,-39,51,18,77,73,73,66,48,39,15,42,13,39,46,15,21,28,25,53,64,86,83,98,86,80,68,72,67,72,76,83,81,52,63,101,13
21.18125,61,59,67,63,53,64,37,35,54,69,71,72,56,41,32,50,65,76,73,68,52,-73,-14,-51,-43,-33,28,21,-49,10,-30,46,23,32,35,14,24,10,-7,12,-11,45,-13,-13,5,25,24,35,63,61,77,77,77,71,78,43,47,63,90,100,44,60,106,14
21.1875,7,14,27,30,30,49,27,-13,21,44,54,58,48,37,0,25,45,68,64,60,50,-108,-40,-74,-74,-67,4,12,-61,-7,-49,33,8,17,25,8,23,10,-14,7,-6,27,-10,22,-5,19,7,27,56,56,75,73,71,67,65,45,46,60,87,92,42,64,114,31
21.19375,24,34,37,29,33,50,31,9,38,49,55,55,44,34,14,35,51,72,64,54,44,-97,-28,-60,-46,-40,14,21,-51,13,-13,40,23,23,32,18,32,19,4,3,7,7,-16,34,-2,11,20,35,59,58,74,67,60,53,53,52,51,59,74,83,48,68,109,47
24.88125,47,16,-1,-10,15,4,18,30,23,-3,-8,6,2,6,13,18,8,12,12,17,22,-85,-68,-55,-43,-39,1,-11,-37,-35,23,-15,-9,-7,-12,-7,-10,-33,-11,10,-6,2,-32,25,20,47,17,15,27,18,20,24,27,32,43,12,15,35,44,44,15,31,26,31
24.8875,18,-9,-24,-23,13,7,24,13,8,-11,-12,16,18,20,16,18,3,14,23,34,40,-101,-58,-35,-63,-59,8,7,-9,-35,15,-4,-4,5,5,8,17,-6,-6,36,13,67,14,21,46,51,43,35,41,30,31,35,39,39,41,43,35,42,43,40,31,43,38,37
24.89375,34,10,-2,7,35,31,48,32,20,5,4,29,32,46,33,28,10,18,27,36,43,-63,-46,-18,-52,-50,14,23,12,-29,15,-6,1,7,7,8,18,8,-3,41,24,81,33,14,38,21,30,26,29,11,10,8,11,11,12,23,14,14,12,4,23,20,13,6
24.9,27,1,-12,-5,15,6,26,31,16,-5,-7,3,10,21,30,23,3,8,10,15,19,-72,-58,-44,-61,-58,-10,-6,-14,-27,-7,-22,-11,-8,-16,-13,-11,-12,10,3,42,-30,19,17,60,32,44,38,38,18,15,9,11,14,27,35,27,23,20,16,17,5,-8,-6
24.90625,37,8,-7,-7,13,-9,-7,37,17,-5,-7,-4,-11,-18,29,16,1,7,4,8,3,-92,-64,-50,-62,-60,-18,-18,-32,-23,4,-31,-12,-12,-22,-15,-29,-27,16,-18,41,-30,2,13,42,27,26,22,27,10,8,5,8,10,20,29,23,21,21,21,18,2,-12,1
24.9125,55,23,0,-6,22,-4,2,49,29,4,-1,5,-4,-3,35,27,11,14,14,17,13,-64,-59,-41,-23,-22,-1,-2,-21,23,58,-3,17,8,-1,11,-4,4,54,11,53,23,41,16,56,32,44,48,51,39,31,29,33,32,28,53,51,47,47,42,38,21,8,27
24.91875,86,48,18,3,30,11,21,70,54,22,6,18,11,18,57,50,29,28,25,29,26,-71,-56,-36,-33,-29,-8,-7,-20,19,58,-4,12,-1,-10,2,-13,-7,39,4,37,-14,42,-5,70,31,61,62,59,46,33,31,34,30,23,67,60,45,43,37,63,43,26,48
24.925,63,31,7,-4,22,1,10,49,46,15,3,12,2,6,56,44,24,18,14,18,16,-77,-64,-54,-50,-48,-13,-8,-22,3,31,-15,-2,-11,-15,-4,-13,-16,16,1,44,-14,48,-22,73,17,62,52,46,25,13,12,16,11,9,62,51,28,29,27,69,42,15,34
24.93125,33,4,-20,-31,1,-18,2,23,22,-10,-22,-10,-14,-9,36,21,-1,-5,-7,3,2,-96,-72,-57,-73,-70,-33,-16,-29,-32,-9,-36,-39,-43,-41,-33,-24,-23,-15,-12,25,-14,2,23,44,15,52,39,32,17,7,17,22,21,25,59,49,40,49,62,69,48,26,45
24.9375,-1,-31,-45,-53,-15,-35,-19,4,0,-21,-26,-18,-17,-14,22,11,-5,2,3,14,8,-120,-85,-63,-105,-101,-51,-36,-42,-63,-43,-55,-56,-51,-54,-47,-39,-23,-30,-9,1,26,8,3,43,37,48,42,48,34,28,39,42,39,44,68,58,64,71,75,75,72,59,71
24.94375,-8,-29,-30,-36,-2,-22,1,5,8,-3,2,-1,1,18,24,22,13,22,20,24,25,-91,-84,-55,-89,-88,-43,-30,-37,-59,-46,-60,-51,-44,-51,-45,-32,-4,-35,10,4,57,6,-16,34,31,32,22,34,25,23,29,28,26,27,43,35,53,56,57,73,84,71,78
24.95,-30,-50,-48,-59,-26,-40,-12,-23,-17,-29,-23,-17,-20,-4,-14,-11,-12,0,-4,0,3,-105,-101,-73,-108,-105,-71,-51,-56,-87,-67,-81,-76,-72,-80,-73,-53,-31,-55,-23,-13,-54,-24,11,2,23,3,-8,3,4,12,20,20,18,24,19,13,40,48,57,59,73,58,68
24.95625,-29,-46,-49,-61,-31,-48,-31,-9,-10,-20,-18,-10,-25,-26,-9,-4,-2,10,7,10,5,-134,-95,-70,-102,-102,-67,-49,-46,-69,-40,-65,-47,-51,-65,-50,-46,-24,-12,-21,22,-41,3,17,27,32,29,16,32,26,30,33,33,25,29,42,36,56,50,43,51,58,40,53
24.9625,35,20,3,-29,3,-18,-4,55,45,24,16,17,-1,-1,45,39,35,41,29,27,19,-109,-70,-42,-60,-56,-24,-16,-20,-21,27,-20,6,-9,-24,-8,-18,5,30,0,41,-3,32,4,71,22,66,55,64,54,51,42,37,24,23,68,59,73,59,44,66,64,40,62
24.96875,63,46,25,-12,17,-8,5,60,56,37,30,22,-1,-5,59,50,45,45,25,17,8,-70,-60,-40,-39,-36,-16,-17,-33,-7,44,-10,13,-6,-22,-9,-20,-2,23,-10,62,-22,40,-18,73,24,72,63,69,56,49,44,37,27,38,70,61,74,69,68,83,88,62,97
24.975,63,43,21,-14,8,-16,-4,62,56,32,24,11,-8,-12,62,52,40,36,22,15,10,-68,-63,-44,-37,-34,-17,-16,-25,-5,25,-18,2,-16,-31,-14,-26,-8,21,0,37,11,17,-5,64,19,72,56,59,34,29,28,25,21,23,54,46,47,49,48,80,88,67,111
24.98125,51,24,-4,-37,-7,-27,-6,39,35,8,-1,-6,-17,-5,45,35,20,15,6,5,6,-60,-77,-59,-34,-33,-32,-23,-38,-14,-10,-31,-20,-33,-46,-33,-35,-13,-2,-3,19,17,20,-1,58,10,63,49,51,30,29,26,25,22,22,54,49,44,48,46,60,63,45,78
24.9875,40,12,-3,-22,12,-11,2,35,41,26,33,30,4,13,54,49,43,49,36,31,24,-74,-65,-37,-41,-40,-24,-22,-24,-12,-6,-27,-19,-18,-31,-27,-27,-5,3,1,47,-4,27,-5,65,31,71,67,73,51,50,42,41,32,34,82,73,56,61,60,61,52,35,52
24.99375,28,-5,-6,1,31,3,10,35,43,36,49,48,16,8,59,55,52,58,44,39,29,-80,-51,-25,-61,-59,-21,-6,-4,-27,-17,-31,-35,-15,-20,-21,-11,9,2,16,49,12,27,-2,70,50,78,72,81,52,53,44,45,39,45,86,80,57,63,65,74,58,33,49
25.0,26,-12,-7,3,42,14,25,40,40,37,47,56,29,19,59,55,51,56,43,39,34,-56,-48,-16,-52,-53,-16,5,3,-24,-24,-27,-39,-20,-20,-24,-12,7,10,14,54,1,18,3,65,42,76,66,76,40,43,33,36,28,38,82,73,47,51,50,83,61,27,48
25.00625,26,-8,-11,-11,23,-3,13,41,32,26,33,34,11,4,45,41,37,40,29,22,20,-90,-76,-48,-68,-68,-29,-16,-26,-31,-25,-36,-29,-22,-29,-24,-21,-4,4,7,24,11,16,-1,52,35,63,51,59,29,33,30,28,22,25,69,61,45,49,48,78,63,30,48
25.0125,25,10,6,-11,13,-10,6,29,34,27,26,30,1,1,31,31,32,36,27,20,15,-89,-76,-58,-69,-67,-29,-22,-34,-36,-18,-34,-15,-23,-36,-23,-24,-12,-13,4,6,-11,17,15,35,26,34,27,47,29,33,27,25,21,24,43,40,45,40,33,62,61,27,52
25.01875,20,13,6,-14,8,-14,-2,17,31,22,17,28,-2,-5,13,26,28,31,18,15,8,-93,-82,-67,-76,-71,-34,-31,-40,-42,-17,-32,-10,-26,-41,-29,-35,-25,-18,-8,3,-10,-17,-14,24,24,14,8,34,23,26,14,13,4,7,14,18,27,14,-4,36,37,4,30
25.025,21,24,27,5,28,-3,8,25,39,40,45,45,14,12,15,36,43,52,36,31,25,-84,-72,-45,-52,-46,-11,-13,-16,-23,21,-6,29,13,-8,5,-12,2,2,15,32,43,-1,-11,41,35,35,30,57,46,53,39,37,27,21,34,40,47,39,21,32,27,-7,20
25.03125,58,58,65,44,63,33,36,60,70,70,71,71,44,43,43,62,68,73,60,54,45,-64,-45,-27,-31,-27,8,6,1,1,42,13,39,25,5,12,-4,12,22,16,48,-4,-8,15,40,39,37,38,61,46,48,39,36,31,31,34,36,38,42,32,42,35,11,32
25.0375,57,35,39,20,42,18,25,45,49,42,36,47,25,18,20,36,43,41,33,30,24,-48,-58,-50,-24,-24,-10,-7,-17,1,28,-3,7,0,-14,-5,-9,-2,16,4,14,-24,-20,-16,1,21,3,10,36,23,24,12,13,9,15,13,17,16,18,7,39,31,21,33
25.04375,41,13,15,2,32,13,23,25,33,31,30,46,19,10,10,32,39,46,32,24,18,-50,-41,-33,-23,-24,-20,-10,-23,-6,30,-12,-16,-14,-18,-8,4,2,10,22,20,39,5,-11,26,46,31,35,60,43,43,23,22,16,27,39,46,39,23,9,37,31,22,37
25.05,36,5,3,-8,28,7,16,36,42,39,39,51,18,11,42,54,56,62,34,26,21,-73,-46,-26,-41,-41,-41,-16,-12,-16,5,-32,-49,-40,-39,-34,-27,-18,6,1,43,-4,22,8,58,38,60,64,82,60,55,28,22,12,13,56,64,50,18,-6,43,32,15,31
25.05625,23,-8,-14,-9,26,-5,-6,48,50,46,45,52,20,2,58,71,73,71,48,32,23,-68,-54,-36,-54,-53,-42,-14,-17,-34,-29,-40,-50,-31,-30,-31,-29,-21,-5,-3,27,-3,16,-4,56,37,61,70,91,79,80,52,45,32,25,59,70,70,46,29,52,46,29,39
25.0625,23,12,21,34,65,24,11,48,67,78,83,85,43,15,57,82,96,99,80,62,40,-34,-31,-13,-26,-26,-5,10,2,-17,2,-7,-7,14,11,4,-1,1,1,4,38,-1,27,10,63,46,54,64,92,88,100,76,70,49,31,41,57,80,64,34,51,53,43,33
25.06875,41,51,71,72,100,53,34,70,95,115,121,124,71,42,73,105,124,130,113,95,68,-24,-4,14,-3,2,40,47,35,6,50,43,52,65,52,49,33,21,32,30,63,48,39,4,82,48,68,74,102,103,122,93,86,56,28,36,55,83,62,15,46,48,43,24
25.075,80,95,111,103,124,77,61,91,120,136,137,139,88,68,81,118,136,142,119,97,74,-3,2,20,18,22,58,59,44,15,85,53,76,77,60,63,41,23,36,36,55,44,27,-28,59,33,44,62,93,98,115,77,62,32,13,39,57,79,41,-4,45,40,30,23
25.08125,79,91,104,87,99,48,39,78,108,120,116,111,53,30,68,106,123,127,95,71,42,-33,-15,12,4,8,51,43,31,25,82,45,76,69,43,48,15,-4,43,8,48,-18,13,-2,53,45,41,60,92,98,108,72,55,27,14,45,60,84,42,3,50,41,29,31
25.0875,82,83,85,59,67,18,11,76,95,95,89,83,27,4,55,91,102,103,65,48,24,-24,-20,-10,18,18,33,21,5,27,79,27,55,42,21,25,-12,-30,33,-14,39,-39,-7,-1,34,20,21,34,67,64,73,49,32,9,4,17,29,59,30,-1,42,42,30,43
25.09375,51,45,43,25,35,-1,-6,42,54,56,47,54,7,-7,20,56,61,65,35,24,10,-34,-46,-46,5,6,3,-6,-33,1,54,2,19,11,1,4,-23,-40,1,-20,14,-25,-20,-19,10,11,-4,6,37,35,49,30,21,5,7,-10,3,37,27,13,18,34,25,36
25.1,30,22,23,16,35,5,-3,29,35,40,36,53,10,1,8,40,45,51,31,24,15,-21,-29,-16,2,4,5,4,-4,-1,50,11,7,10,5,6,-11,-33,5,-7,30,-9,3,-16,19,34,-1,6,32,29,44,33,30,21,23,-6,2,35,34,27,4,26,21,23
25.10625,43,22,21,11,44,21,16,42,36,34,35,56,25,16,13,35,40,48,36,34,30,-3,-2,-4,-1,-2,12,16,14,-2,39,10,-1,5,8,12,2,-21,13,10,10,15,-21,-11,5,49,-12,-7,15,7,24,20,23,16,21,-19,-21,14,18,17,1,23,21,30
25.1125,18,-7,-10,-15,17,3,7,-2,1,-5,-4,21,-4,1,-33,-15,-5,5,0,2,7,-42,-24,-18,-38,-37,-11,2,-2,-39,1,-20,-34,-24,-18,-15,-16,-36,-37,-2,-41,1,-36,-30,-22,27,-52,-54,-38,-43,-24,-22,-11,-11,-2,-61,-63,-32,-18,-23,-20,-7,-8,15
25.11875,-16,-35,-36,-36,-2,-5,12,-28,-26,-29,-31,3,-14,6,-54,-42,-35,-20,-19,-10,8,-33,-21,-5,-32,-31,-11,12,13,-37,2,-16,-35,-26,-17,-12,3,-21,-41,21,-21,37,-24,-28,-19,35,-67,-73,-63,-63,-45,-35,-19,-7,0,-93,-92,-61,-25,-27,-60,-49,-50,-14
25.125,-10,-36,-44,-42,-5,1,27,-21,-31,-37,-33,-2,-1,26,-58,-49,-46,-25,-18,-7,22,-45,-48,-36,-34,-32,-26,-5,-2,-49,-5,-33,-44,-34,-26,-19,0,-19,-36,31,-16,58,-26,4,-26,39,-78,-87,-77,-79,-59,-40,-18,-2,5,-114,-109,-73,-22,-17,-99,-75,-72,-37
25.13125,-11,-30,-34,-34,4,4,31,-13,-25,-30,-24,7,11,30,-48,-39,-35,-15,-5,3,31,-92,-70,-49,-75,-72,-27,-8,-7,-60,-10,-24,-30,-18,-20,-14,1,-23,-32,29,-4,15,-43,13,-15,43,-63,-65,-51,-58,-37,-28,-6,4,10,-96,-90,-65,-19,-26,-105,-74,-77,-42
25.1375,-1,-5,-4,-10,23,10,25,6,2,2,3,26,17,21,-29,-13,-8,10,10,13,30,-116,-77,-61,-92,-88,-29,-19,-21,-55,-11,-23,-18,-10,-15,-11,-11,-44,-17,17,-6,8,-49,-2,-11,44,-59,-38,-21,-26,-12,-8,8,12,19,-60,-50,-36,-1,-8,-74,-53,-68,-28
25.14375,24,24,23,14,40,24,31,37,39,37,37,50,36,36,15,30,34,50,41,39,51,-84,-62,-43,-39,-37,-1,-1,-3,-8,24,4,19,24,14,20,10,-19,23,37,37,25,13,-1,33,59,-1,16,31,19,26,25,34,36,46,-6,1,5,32,29,-23,-12,-35,8
25.15,55,48,40,35,49,30,36,67,57,48,43,60,30,30,41,48,46,52,38,30,38,-81,-73,-49,-27,-26,-15,-17,-11,-10,19,-9,8,5,-10,-6,-15,-25,10,18,27,-4,-22,2,27,63,-1,12,26,10,6,0,7,12,22,-14,-11,-17,4,-9,-2,1,-25,14
25.15625,25,14,3,-10,9,-5,11,42,34,22,15,36,4,6,29,33,31,33,19,14,24,-93,-90,-76,-50,-49,-40,-39,-36,-43,-10,-31,-19,-20,-30,-23,-15,-33,-23,23,-10,14,-16,7,22,63,1,12,27,11,11,9,19,20,27,-2,-1,-3,17,4,-3,1,-22,20
25.1625,4,8,11,2,29,23,43,23,36,37,39,63,38,43,30,42,46,58,51,48,53,-56,-59,-45,-33,-33,-9,-8,-7,-37,-7,-4,6,15,6,6,17,-17,-19,54,11,70,-4,-5,38,66,24,29,44,33,40,36,45,34,30,17,18,17,34,3,-1,6,-15,23
25.16875,19,33,47,47,76,56,62,39,56,68,76,99,59,58,44,60,70,81,72,58,58,-65,-47,-39,-34,-31,8,0,-2,-26,2,13,25,38,25,20,15,-16,-1,51,29,30,-3,-29,57,48,52,53,64,51,54,37,40,21,11,40,39,25,21,-17,15,12,-20,17
25.175,41,58,70,68,93,61,57,65,78,89,93,101,54,48,70,83,87,91,76,56,49,-72,-49,-31,-21,-19,24,10,11,-11,19,22,46,61,42,36,18,-11,27,46,55,31,23,3,70,29,50,63,74,56,56,35,32,13,4,36,40,23,16,-14,22,8,-29,3
25.18125,58,77,96,94,100,58,49,78,91,101,104,102,50,31,72,86,90,93,78,55,40,-32,-18,2,-3,-3,40,22,23,-2,22,30,61,73,49,37,19,-16,28,31,60,-5,13,14,64,32,44,62,74,53,56,41,37,21,18,31,37,25,29,5,20,7,-18,9
25.1875,47,59,80,77,80,44,41,66,74,83,81,83,39,21,56,69,73,79,63,43,36,-31,-29,-15,-5,-6,16,3,6,-13,-3,11,31,42,25,16,7,-26,11,43,26,21,-13,0,36,37,23,39,48,30,37,29,29,18,13,7,13,7,25,4,5,2,-4,14
25.19375,23,31,43,45,52,25,32,44,46,50,51,53,21,17,31,44,43,51,40,23,25,-44,-42,-35,-25,-26,-11,-17,-6,-44,-21,-15,6,18,0,0,-12,-36,-17,52,5,5,-25,3,11,2,-2,16,29,15,27,18,21,10,-1,-14,2,4,21,10,-18,-12,3,10
25.2,20,40,55,64,70,41,39,54,60,67,73,78,49,36,37,58,62,74,63,55,51,-15,-14,-3,6,4,16,16,29,-21,7,24,40,52,36,35,26,5,2,84,7,34,-18,-4,31,50,16,35,50,36,51,45,49,40,26,-2,13,16,37,19,-22,-13,13,18
25.20625,40,58,74,92,99,68,62,48,64,69,77,86,62,45,33,45,55,67,56,53,49,19,19,43,48,46,38,44,75,6,32,36,56,67,53,51,40,13,15,80,20,-5,0,-1,32,34,13,23,30,18,30,25,30,21,5,-4,5,-1,18,-11,-20,-24,-5,5
25.2125,73,90,103,113,116,76,63,86,95,98,100,103,70,39,69,82,86,96,87,76,63,77,61,71,125,119,87,76,84,70,106,87,124,129,101,101,60,-10,90,84,100,52,48,-14,102,78,81,98,107,96,103,98,100,83,58,65,79,76,89,59,17,9,10,32
25.21875,141,156,167,168,163,119,97,142,154,157,154,148,110,90,119,130,135,140,127,115,107,93,71,77,127,123,106,103,109,78,112,108,130,140,119,115,101,52,91,133,90,71,49,-16,97,89,76,88,97,82,87,86,93,83,67,50,59,54,76,45,46,38,30,54
25.225,122,134,144,147,154,127,134,120,130,126,120,127,107,101,104,111,108,112,108,107,113,167,158,196,182,174,146,176,243,92,137,134,151,159,147,151,157,144,97,169,117,49,77,63,126,112,117,120,125,105,106,102,112,103,86,106,112,95,103,77,76,68,58,86
25.23125,162,176,178,175,186,154,148,182,178,166,153,169,134,118,173,168,154,155,147,145,143,222,205,225,237,231,187,202,257,138,183,172,192,197,181,180,164,119,142,159,154,80,119,42,168,128,179,174,174,156,155,142,145,130,107,159,160,139,136,101,130,109,96,141
25.2375,181,190,199,199,209,171,160,181,183,185,184,187,153,133,165,172,169,174,163,158,154,265,227,243,267,260,204,221,278,145,194,189,202,211,200,196,190,146,124,181,124,97,82,45,134,119,137,149,155,146,152,143,144,135,113,143,145,132,134,105,162,137,126,184
25.24375,177,197,211,222,233,201,199,180,183,195,199,195,175,157,154,176,173,180,178,175,170,341,306,342,320,310,253,279,364,169,222,224,240,254,244,239,235,194,148,223,161,158,88,56,142,145,133,148,161,152,158,153,154,145,119,128,136,129,135,92,152,131,125,186
25.25,201,220,228,239,250,216,217,199,200,204,205,211,180,177,153,174,173,178,175,171,173,336,298,341,306,297,248,272,363,145,190,212,220,234,229,217,221,185,124,220,107,144,22,40,96,118,83,96,107,101,107,107,114,106,84,51,62,64,87,48,92,71,76,115
25.25625,139,153,160,180,192,161,166,121,133,137,137,147,116,113,78,105,110,116,111,108,110,326,279,323,271,262,204,241,350,88,137,159,169,186,181,174,184,161,63,166,32,81,-16,26,50,83,33,50,68,61,69,68,78,76,62,18,31,36,65,42,22,6,20,22
25.2625,91,115,121,148,155,134,153,80,97,106,108,117,90,92,49,79,82,91,87,87,95,312,275,325,228,222,188,237,360,50,102,138,139,164,164,157,194,176,17,180,13,93,-41,42,15,76,0,18,37,36,50,53,63,64,52,-11,-1,21,52,31,-19,-27,-11,-24
25.26875,56,77,84,117,135,126,169,49,62,74,84,98,81,98,17,49,59,74,70,71,87,345,297,342,240,232,192,243,356,42,96,138,129,158,166,155,209,177,9,196,3,46,-56,49,5,82,0,18,32,37,55,53,60,62,51,-2,6,30,48,25,-20,-24,-18,-15
25.275,59,74,89,118,147,134,162,54,68,82,91,111,96,101,29,59,69,87,84,85,99,351,300,365,247,239,203,257,391,43,99,136,137,166,175,163,191,215,16,196,3,81,-65,44,3,102,4,23,41,44,62,61,69,71,58,-6,7,32,57,37,-6,-11,-13,-1
25.28125,59,71,81,112,136,122,149,52,63,72,84,107,92,94,21,48,60,78,80,83,98,347,300,363,235,229,194,248,389,35,95,126,126,153,162,151,183,219,13,191,6,86,-78,50,-6,99,-12,15,37,40,61,68,80,82,72,-17,7,35,77,60,-5,-2,8,6
25.2875,65,87,89,122,145,132,160,77,81,85,92,120,101,105,50,72,77,91,96,99,115,353,327,387,259,249,224,275,403,55,118,153,152,181,191,179,218,234,38,209,25,105,-44,40,30,123,30,51,67,60,78,81,91,93,79,21,36,48,79,48,4,2,13,-2
25.29375,73,93,92,122,152,146,177,78,82,86,90,113,109,119,55,72,77,90,90,97,119,345,322,379,232,227,214,280,404,22,79,133,124,157,178,166,221,247,-8,223,-16,123,-62,40,18,97,24,34,50,36,55,54,68,71,56,11,20,25,53,18,6,-4,-2,-9
29.08125,44,32,32,48,40,9,6,54,45,49,62,25,16,11,25,34,39,44,32,27,12,-154,-96,-121,-97,-81,-3,-22,-72,41,25,32,13,22,16,10,13,3,52,7,64,-39,68,-3,51,-19,7,2,5,7,26,21,8,2,-10,-27,-33,-1,3,-13,-34,10,38,-7
29.0875,34,34,50,72,58,15,5,36,34,43,68,25,6,-6,-12,6,20,26,15,5,-11,-135,-89,-117,-84,-68,13,-12,-79,26,18,44,38,43,30,22,14,-15,7,6,10,-12,34,-21,8,-52,-37,-39,-29,-22,1,-5,-14,-20,-35,-69,-63,-27,-24,-41,-54,-12,11,-32
29.09375,23,42,68,89,68,25,14,8,26,41,62,24,12,16,-30,-3,12,16,13,12,7,-149,-70,-90,-92,-71,36,2,-65,24,27,62,66,69,52,45,25,2,34,21,7,6,34,3,11,-19,-27,-25,-15,-5,14,14,9,12,3,-44,-38,1,10,7,-64,-20,2,-30
29.1,16,50,72,92,70,30,16,13,28,43,55,27,21,18,-26,4,17,21,19,20,17,-163,-82,-109,-110,-91,24,-9,-74,8,27,56,53,53,40,31,11,-7,16,10,-13,6,1,2,-10,6,-35,-24,-15,-4,14,15,12,15,13,-52,-45,-3,7,1,-60,-10,16,-9
29.10625,5,29,48,65,50,10,1,1,13,22,38,20,10,9,-36,-14,-1,4,5,6,6,-152,-84,-117,-110,-92,21,-14,-85,9,23,49,54,52,35,30,8,-5,14,13,-14,23,14,3,-17,-17,-37,-33,-25,-20,-1,2,1,2,-1,-62,-55,-23,-7,-17,-69,-25,8,-42
29.1125,29,36,54,67,52,13,13,15,21,24,40,30,16,23,-24,-7,1,7,12,17,19,-127,-70,-95,-82,-65,27,-8,-68,29,35,40,44,43,25,17,4,-1,31,17,12,34,24,4,0,-12,-26,-33,-30,-24,-3,0,-2,5,4,-55,-54,-26,-5,-8,-76,-38,-3,-61
29.11875,8,-3,19,28,14,-27,-22,-12,-8,-4,16,-2,-18,-6,-44,-27,-22,-9,-12,-11,-5,-153,-92,-125,-99,-83,-13,-44,-100,12,10,1,2,2,-17,-26,-39,-39,13,-21,-8,-33,-3,2,1,-30,-32,-48,-52,-40,-20,-23,-26,-20,-14,-63,-67,-42,-30,-33,-77,-41,-15,-44
29.125,-10,-15,5,15,-5,-56,-51,-23,-23,-13,8,-18,-48,-32,-60,-44,-35,-21,-31,-35,-26,-147,-100,-137,-104,-90,-18,-52,-109,3,2,-11,-2,2,-17,-28,-40,-39,1,-16,-29,-1,10,-21,-20,-39,-58,-68,-73,-62,-41,-42,-41,-32,-25,-81,-93,-68,-50,-53,-88,-50,-38,-36
29.13125,-26,-23,2,19,3,-44,-30,-41,-42,-24,-3,-22,-46,-16,-82,-67,-53,-42,-42,-42,-24,-159,-92,-120,-121,-106,-24,-46,-94,-24,-19,-15,-24,-14,-23,-37,-30,-22,-27,-1,-33,-14,-15,-3,-49,-31,-93,-96,-99,-91,-62,-55,-50,-37,-24,-118,-127,-90,-55,-58,-116,-73,-70,-61
29.1375,-50,-55,-36,-18,-18,-58,-34,-53,-63,-52,-31,-41,-52,-24,-97,-80,-71,-59,-51,-46,-27,-168,-105,-121,-125,-111,-45,-56,-101,-32,-27,-31,-51,-41,-42,-52,-33,-22,-29,-14,-46,-50,-30,26,-54,-29,-103,-103,-100,-90,-64,-50,-45,-34,-26,-124,-129,-86,-52,-60,-139,-86,-82,-79
29.14375,-52,-60,-43,-25,-16,-48,-26,-54,-60,-52,-24,-26,-36,-22,-96,-76,-66,-52,-41,-35,-21,-187,-118,-123,-127,-112,-45,-48,-90,-39,-31,-27,-45,-31,-32,-37,-14,-7,-43,-2,-65,-30,-29,12,-58,-30,-105,-102,-92,-78,-55,-39,-39,-29,-21,-120,-117,-72,-42,-49,-138,-75,-67,-74
29.15,-59,-54,-28,-8,-3,-32,-12,-63,-54,-42,-14,-18,-20,-10,-95,-63,-52,-39,-29,-18,-8,-156,-105,-126,-118,-102,-33,-43,-92,-41,-24,-12,-21,-16,-20,-29,-11,-10,-43,3,-54,-17,-37,9,-47,-33,-87,-77,-62,-45,-26,-10,-14,-9,-10,-93,-84,-40,-13,-24,-108,-40,-24,-43
29.15625,-46,-31,-5,9,7,-21,-7,-41,-31,-16,12,2,-1,10,-77,-37,-24,-10,-4,3,7,-169,-111,-128,-135,-118,-27,-43,-95,-40,-18,-6,-7,-5,-10,-15,-7,-12,-34,13,-58,38,-53,1,-64,-36,-98,-76,-59,-35,-14,-3,-6,-6,-25,-99,-86,-42,-14,-35,-91,-24,-8,-37
29.1625,-40,-14,16,38,35,3,16,-36,-17,4,32,24,20,39,-75,-33,-14,1,6,12,20,-154,-84,-91,-111,-97,2,-15,-72,-32,-8,15,14,22,16,7,13,11,-27,30,-49,40,-63,-23,-71,-32,-95,-68,-53,-36,-18,-11,-12,-11,-20,-90,-77,-48,-20,-35,-92,-37,-26,-48
29.16875,-35,-10,15,35,32,-6,11,-30,-16,-5,11,2,-6,10,-69,-34,-23,-20,-20,-14,-6,-168,-93,-107,-117,-101,-7,-28,-80,-44,-15,7,1,6,3,-6,-3,2,-36,6,-62,-45,-56,-4,-59,-29,-77,-61,-50,-44,-33,-30,-34,-25,-22,-84,-77,-61,-33,-39,-98,-51,-34,-52
29.175,-45,-25,-3,14,15,-22,-13,-32,-27,-19,-6,-14,-33,-27,-65,-42,-34,-32,-39,-39,-32,-154,-97,-120,-110,-98,-16,-33,-79,-51,-18,-8,-17,-6,-4,-11,-3,6,-48,-4,-60,-23,-33,15,-53,-46,-69,-68,-66,-63,-49,-50,-52,-44,-43,-87,-88,-78,-59,-68,-102,-66,-49,-58
29.18125,-59,-42,-19,2,7,-26,-18,-42,-44,-32,-11,-14,-31,-20,-77,-57,-45,-35,-36,-33,-25,-163,-103,-135,-140,-124,-32,-51,-106,-53,-32,-25,-33,-22,-22,-32,-26,-14,-42,-12,-41,-35,-42,6,-60,-37,-77,-66,-70,-57,-44,-33,-34,-25,-27,-74,-76,-65,-40,-37,-95,-61,-52,-49
29.1875,-46,-36,-21,-14,-13,-44,-37,-20,-34,-25,-8,-13,-25,-22,-63,-43,-36,-30,-24,-21,-18,-168,-116,-150,-131,-118,-44,-74,-131,-33,-9,-34,-34,-30,-35,-39,-51,-41,-12,-28,-38,-46,-41,-2,-41,-37,-59,-51,-58,-47,-34,-21,-21,-14,-18,-58,-63,-55,-23,-22,-80,-46,-35,-39
29.19375,-16,-11,-3,-9,3,-34,-38,-5,-14,-7,11,2,-7,-15,-45,-26,-17,-11,-1,3,1,-134,-94,-135,-83,-73,-26,-55,-112,-1,25,-19,-16,-13,-19,-20,-40,-35,5,-18,-32,-13,-4,-1,-18,-18,-40,-32,-34,-24,-10,3,2,9,7,-39,-42,-26,-1,2,-59,-25,-11,-25
29.2,-12,-5,3,-2,14,-29,-27,-2,-5,2,22,12,3,4,-35,-14,-2,8,14,14,18,-145,-96,-126,-81,-70,-29,-52,-110,3,17,-15,-19,-18,-23,-25,-39,-32,12,-4,-4,54,1,-32,-11,-22,-26,-11,-11,0,12,17,10,12,6,-26,-21,-3,10,11,-35,-2,13,-7
29.20625,-8,-6,2,-6,0,-41,-24,12,8,13,25,4,-15,3,-21,5,15,19,12,3,4,-142,-111,-131,-95,-85,-41,-62,-98,-16,11,-31,-26,-31,-36,-35,-44,-30,12,-14,-12,-19,-5,-47,-7,-45,-14,2,3,14,22,21,5,3,-4,-7,-2,18,21,24,-14,24,34,17
29.2125,-12,-6,-2,-22,-24,-64,-46,14,17,15,16,-13,-39,-30,-4,19,27,22,7,-4,-11,-147,-114,-146,-102,-91,-52,-75,-117,-19,12,-42,-31,-40,-50,-46,-55,-36,-7,-35,-3,-66,6,6,7,-42,-3,11,11,23,31,32,15,14,8,-2,4,26,33,33,-4,37,43,14
29.21875,-23,-12,-6,-31,-36,-72,-49,5,12,10,15,-19,-40,-26,-9,14,26,26,13,5,1,-158,-108,-147,-119,-106,-46,-70,-121,-18,6,-29,-22,-24,-38,-37,-43,-29,-5,-22,1,-35,14,15,12,-8,8,22,20,36,42,45,33,37,26,12,14,34,46,44,4,48,53,11
29.225,-13,-1,14,5,-5,-43,-26,21,23,23,36,-2,-19,-9,7,25,32,34,22,18,15,-153,-101,-128,-111,-101,-27,-51,-103,-19,4,-21,-10,-6,-16,-23,-32,-27,-1,-17,4,-30,1,-5,-7,-20,-3,9,0,15,25,29,17,22,8,-15,-14,6,24,19,-6,31,42,-5
29.23125,-12,3,26,27,15,-22,-21,24,18,25,40,12,-1,3,-7,19,26,36,27,26,24,-145,-96,-118,-84,-72,-1,-29,-90,-7,23,17,29,31,20,16,2,-1,6,4,-12,14,-8,-6,-3,-9,-7,15,14,30,44,49,43,43,25,2,6,21,40,35,-11,17,29,-7
29.2375,18,49,76,78,78,43,33,40,46,63,82,64,51,46,9,41,55,65,64,60,50,-87,-53,-77,-45,-32,46,13,-46,21,58,65,71,76,65,62,41,25,40,27,16,11,16,-15,23,-1,5,23,27,36,48,52,46,42,22,3,7,11,31,24,-12,9,21,-11
29.24375,28,63,91,90,99,62,47,44,54,70,92,78,60,51,14,43,55,60,63,58,50,-99,-51,-88,-48,-35,44,7,-59,31,61,63,72,74,68,67,44,23,44,38,37,57,24,-26,21,-6,11,29,32,31,36,39,35,32,10,10,12,-1,11,-3,-14,-1,8,-24
29.25,38,66,87,90,106,71,57,62,60,70,92,82,69,68,27,49,52,56,61,61,54,-91,-43,-67,-45,-35,44,18,-43,33,70,73,69,73,73,69,54,32,51,41,49,50,2,12,21,-17,18,36,35,33,34,29,24,21,2,20,19,-1,-4,-16,-7,-1,-2,-24
29.25625,34,51,63,75,86,53,41,52,42,48,68,56,44,30,8,26,32,31,32,32,19,-108,-61,-76,-67,-57,15,2,-46,9,43,36,33,37,39,36,30,15,26,7,-12,-62,-3,13,-5,-38,-7,3,2,1,-5,-12,-17,-19,-37,-9,-14,-34,-42,-65,-17,-14,-31,-38
29.2625,8,29,36,43,44,13,9,22,17,22,36,34,12,-3,-15,5,8,6,7,5,-1,-102,-64,-87,-49,-41,7,-13,-57,29,35,26,36,33,25,28,17,0,21,-2,3,-48,12,15,0,-42,-20,-7,-4,-5,-9,-17,-23,-27,-49,-24,-25,-37,-44,-77,-37,-27,-53,-50
29.26875,13,40,47,47,43,6,2,19,20,27,39,32,1,-5,-22,2,11,7,0,-4,-8,-101,-67,-97,-55,-45,3,-22,-70,14,35,25,37,30,19,22,10,-10,18,0,2,-17,-3,3,-21,-46,-36,-20,-14,-10,-10,-14,-23,-24,-41,-40,-41,-41,-42,-63,-52,-33,-54,-53
29.275,10,37,52,49,43,8,3,18,18,29,45,41,2,2,-35,-7,9,13,3,1,-1,-146,-85,-106,-87,-77,-2,-25,-71,17,36,20,35,27,22,24,6,-4,17,-3,-11,-11,-17,-8,-44,-33,-50,-36,-26,-18,-16,-17,-20,-18,-28,-62,-51,-46,-41,-54,-67,-36,-44,-56
29.28125,8,36,52,49,43,9,-2,23,15,28,44,46,5,3,-32,-1,12,16,13,13,8,-118,-78,-100,-58,-50,12,-16,-70,34,44,34,47,40,33,31,8,-7,26,-5,-2,-1,-18,-5,-24,-23,-32,-12,-4,7,9,8,5,6,-12,-29,-21,-15,-10,-27,-55,-21,-22,-40
29.2875,24,49,62,63,56,20,10,40,30,41,56,50,27,25,-8,20,29,33,31,35,35,-72,-48,-72,-23,-16,31,5,-44,51,66,44,55,51,43,43,29,11,36,14,6,39,11,-24,-2,-24,-17,-2,-3,9,11,12,6,5,-23,-27,-25,-25,-17,-44,-33,-4,-15,-23
29.29375,20,34,44,37,35,10,16,11,7,15,22,21,10,30,-35,-8,-1,3,1,8,21,-95,-46,-76,-49,-40,10,-11,-63,30,39,11,25,13,7,13,5,-1,5,2,-23,-3,-34,-37,-48,-33,-66,-42,-31,-24,-25,-22,-23,-22,-36,-71,-58,-50,-42,-67,-43,-18,-29,-33
29.3,-11,1,1,-23,-22,-48,-30,-8,-15,-21,-24,-27,-41,-21,-51,-23,-24,-30,-32,-27,-12,-126,-81,-110,-74,-67,-25,-50,-94,15,23,-22,3,-23,-37,-27,-45,-49,14,-49,-18,-79,-25,18,-33,-23,-49,-24,-16,-13,-12,-12,-14,-8,-12,-46,-32,-23,-18,-35,-56,-25,-29,-35
29.30625,16,31,17,-22,-37,-74,-71,32,27,10,-1,-17,-45,-40,-4,18,15,5,-8,-6,-2,-126,-106,-148,-46,-40,-28,-83,-155,51,67,-22,25,-10,-36,-25,-82,-98,42,-76,27,-59,15,3,8,-19,-7,13,12,17,17,11,2,7,-1,-20,-12,-4,-1,-17,-40,-1,3,-10
29.3125,26,36,23,-17,-46,-83,-73,25,19,-1,-5,-31,-61,-42,-25,-9,-10,-19,-34,-36,-27,-161,-131,-173,-93,-81,-56,-96,-139,14,27,-48,-17,-49,-65,-55,-68,-35,-11,-43,-32,-26,-51,-17,-62,-70,-84,-70,-70,-70,-62,-63,-71,-62,-72,-115,-105,-93,-77,-96,-68,-30,-16,-49
29.31875,-31,-29,-38,-62,-83,-97,-54,-36,-46,-61,-59,-63,-83,-48,-93,-67,-69,-70,-72,-68,-56,-117,-71,-99,-67,-61,-40,-45,-41,14,26,-24,-11,-38,-45,-32,-6,44,-5,4,-45,-7,-54,0,-67,-86,-91,-74,-69,-62,-55,-55,-60,-54,-68,-101,-89,-75,-68,-80,-100,-67,-52,-92
29.325,-7,7,2,-10,-22,-36,-5,-11,-20,-25,-16,-17,-40,-22,-66,-41,-40,-39,-40,-41,-34,-79,-37,-57,-47,-38,-4,-3,-10,17,49,7,15,-4,-5,3,33,68,-5,16,-32,-16,-35,-23,-57,-64,-69,-59,-58,-53,-51,-52,-56,-50,-58,-86,-80,-71,-63,-75,-103,-75,-63,-95
29.33125,-20,3,2,-6,-9,-18,4,-17,-22,-26,-13,-17,-32,-27,-65,-42,-41,-40,-43,-45,-35,-100,-51,-69,-89,-76,-7,-1,-8,-25,24,10,5,-6,-1,5,40,70,-39,20,-59,-34,-87,-11,-73,-46,-72,-59,-56,-53,-45,-45,-48,-41,-50,-83,-74,-63,-48,-54,-85,-54,-47,-65
29.3375,-39,-1,0,-5,-4,-11,4,-27,-20,-16,-8,-9,-21,-28,-69,-35,-30,-25,-31,-34,-27,-123,-65,-77,-118,-105,-11,-6,-10,-44,20,11,8,-3,1,10,31,52,-35,10,-67,-52,-51,7,-59,-34,-61,-36,-27,-23,-15,-15,-21,-16,-29,-52,-41,-27,-11,-13,-58,-21,-14,-40
29.34375,-11,26,29,15,15,4,5,2,13,17,20,15,-1,-11,-40,-1,6,8,-1,-5,-2,-126,-71,-89,-96,-83,-6,-11,-36,-20,46,15,23,6,8,20,27,31,-13,13,-43,-11,-39,-14,-40,-20,-37,-11,3,7,12,13,10,16,2,-21,-12,3,22,23,-24,17,26,-15
29.35,1,32,33,25,22,12,18,9,22,26,33,27,17,18,-24,14,22,24,13,11,20,-102,-66,-96,-73,-62,-1,-12,-42,-7,45,23,27,16,13,20,31,36,-12,22,-27,25,-47,2,-20,-14,-17,4,21,21,20,21,14,19,4,-5,3,7,20,13,-1,31,41,-9
29.35625,0,36,35,37,30,11,16,18,28,31,44,34,16,15,-15,24,29,30,19,10,16,-105,-63,-90,-74,-64,3,-13,-37,-8,31,21,33,22,16,24,25,37,-6,14,-13,3,-25,18,-14,-12,2,20,32,31,26,26,18,25,21,10,14,12,31,33,11,30,39,-6
29.3625,3,37,38,33,24,5,7,30,40,36,44,30,5,6,0,37,36,32,21,13,16,-118,-80,-105,-100,-88,-11,-30,-35,-15,24,8,20,5,1,11,16,37,-8,16,3,20,-30,14,-4,-18,7,29,35,37,27,27,21,29,21,12,18,15,32,35,12,29,40,0
29.36875,-3,27,21,12,9,-11,1,27,41,24,23,13,-3,17,3,37,29,15,6,10,21,-136,-97,-111,-117,-105,-32,-64,-56,-29,22,-2,7,-11,-17,-4,2,23,-7,16,5,59,-39,-33,-4,-4,15,37,42,37,24,27,24,34,29,27,34,24,35,40,17,40,56,23
29.375,13,43,31,10,6,-13,11,53,57,35,30,17,12,33,27,56,41,25,17,25,42,-144,-91,-110,-106,-96,-23,-19,-42,-17,34,2,21,-3,-10,7,12,39,8,21,19,2,-9,-10,15,16,44,58,59,54,35,39,34,42,27,42,49,37,42,35,29,51,80,25
29.38125,27,49,35,12,3,-16,3,61,58,39,39,21,12,21,31,56,47,36,27,30,42,-151,-103,-127,-105,-92,-31,-33,-55,-21,44,1,17,-6,-13,-1,4,30,-27,8,-6,-25,-18,37,17,11,37,61,61,68,58,55,49,51,35,55,60,56,50,44,40,51,80,11
29.3875,26,50,43,32,22,-5,6,55,57,53,63,45,30,31,25,60,62,59,53,55,56,-131,-96,-128,-92,-82,-23,-38,-59,-21,41,13,23,8,-2,10,11,24,22,11,-1,-4,-18,29,8,20,21,50,52,69,66,58,51,56,42,33,47,48,42,43,39,51,73,8
29.39375,5,44,46,44,34,10,16,39,44,49,68,51,39,33,0,37,48,49,48,48,51,-137,-92,-120,-107,-95,-16,-31,-59,-19,25,11,23,11,4,14,15,25,11,14,-2,14,-45,4,-29,-6,-17,17,21,37,32,21,15,22,4,4,23,11,-1,0,11,24,37,-4
29.4,1,37,39,41,44,20,23,31,32,36,59,56,39,35,-6,26,33,33,36,35,43,-142,-83,-108,-104,-91,0,-11,-37,-20,43,38,40,32,30,36,49,51,3,39,-6,57,-37,11,-6,8,15,46,48,57,47,39,35,44,39,46,55,42,29,37,11,18,23,9
29.40625,19,58,61,67,79,60,63,44,54,52,71,82,69,62,16,46,50,50,55,54,62,-105,-56,-79,-82,-69,27,25,-2,-9,55,58,51,48,54,61,78,80,5,60,-4,56,-18,27,1,16,26,49,52,54,44,42,35,44,33,48,51,36,30,34,26,23,28,7
29.4125,18,52,48,55,71,58,65,41,52,40,56,64,62,60,15,40,38,33,37,42,54,-97,-56,-74,-67,-56,20,22,-3,-2,50,44,36,32,39,51,68,63,16,45,12,7,-15,-23,4,-7,25,44,42,38,27,24,16,26,14,42,42,21,17,21,35,23,25,-10
