Time,Fc5,Fc3,Fc1,Fcz,Fc2,Fc4,Fc6,C5,C3,C1,Cz,C2,C4,C6,Cp5,Cp3,Cp1,Cpz,Cp2,Cp4,Cp6,Fp1,Fpz,Fp2,Af7,Af3,Afz,Af4,Af8,F7,F5,F3,F1,Fz,F2,F4,F6,F8,Ft7,Ft8,T7,T8,T9,T10,Tp7,Tp8,P7,P5,P3,P1,Pz,P2,P4,P6,P8,Po7,Po3,Poz,Po4,Po8,O1,Oz,O2,Iz,Target
0.0,-6.0,28.0,55.0,85.0,56.0,67.0,161.0,-67.0,-15.0,-16.0,35.0,22.0,-97.0,105.0,-31.0,-48.0,-36.0,-20.0,-22.0,-42.0,14.0,650.0,622.0,649.0,419.0,249.0,298.0,444.0,590.0,90.0,40.0,64.0,167.0,161.0,162.0,163.0,494.0,365.0,83.0,145.0,49.0,107.0,31.0,-38.0,15.0,25.0,-7.0,-48.0,-37.0,-54.0,-36.0,1.0,-16.0,-31.0,-23.0,-23.0,-50.0,-51.0,-2.0,-47.0,-31.0,-78.0,-58.0,-29.0,REST
0.0063,8.0,43.0,55.0,79.0,53.0,68.0,135.0,-60.0,-1.0,-12.0,42.0,29.0,-77.0,147.0,-30.0,-34.0,-22.0,-12.0,-20.0,-21.0,15.0,631.0,616.0,637.0,421.0,264.0,312.0,466.0,601.0,70.0,39.0,82.0,192.0,183.0,188.0,187.0,506.0,390.0,69.0,156.0,41.0,77.0,27.0,-47.0,35.0,29.0,22.0,-22.0,-2.0,-18.0,5.0,41.0,26.0,5.0,1.0,6.0,-14.0,-13.0,40.0,-15.0,-1.0,-46.0,-26.0,-4.0,REST
0.0125,33.0,77.0,93.0,116.0,91.0,107.0,158.0,9.0,46.0,23.0,83.0,69.0,-29.0,177.0,9.0,12.0,25.0,24.0,4.0,3.0,33.0,628.0,620.0,634.0,449.0,281.0,320.0,474.0,598.0,83.0,64.0,87.0,190.0,189.0,189.0,187.0,461.0,357.0,71.0,130.0,50.0,94.0,43.0,-30.0,46.0,45.0,23.0,-29.0,-6.0,-27.0,-4.0,26.0,7.0,-13.0,-6.0,-8.0,-34.0,-32.0,22.0,-23.0,-26.0,-68.0,-49.0,-29.0,REST
0.0188,22.0,51.0,63.0,79.0,54.0,41.0,70.0,-41.0,17.0,-15.0,47.0,18.0,-103.0,67.0,-22.0,-29.0,-8.0,-13.0,-35.0,-55.0,-20.0,621.0,611.0,633.0,438.0,251.0,288.0,440.0,564.0,81.0,64.0,67.0,159.0,159.0,149.0,149.0,432.0,364.0,86.0,130.0,46.0,103.0,32.0,-20.0,25.0,23.0,6.0,-51.0,-25.0,-43.0,-25.0,4.0,-17.0,-33.0,-24.0,-23.0,-49.0,-51.0,10.0,-37.0,-39.0,-81.0,-62.0,-41.0,REST
0.025,30.0,56.0,63.0,68.0,42.0,16.0,72.0,-56.0,20.0,-13.0,41.0,10.0,-130.0,55.0,-16.0,-23.0,-1.0,-3.0,-21.0,-44.0,2.0,611.0,596.0,614.0,419.0,247.0,290.0,431.0,527.0,77.0,48.0,76.0,175.0,168.0,159.0,158.0,446.0,392.0,84.0,149.0,61.0,110.0,58.0,-14.0,34.0,42.0,31.0,-29.0,8.0,-12.0,1.0,29.0,11.0,-4.0,12.0,2.0,-22.0,-28.0,37.0,-18.0,-16.0,-58.0,-46.0,-20.0,REST
0.0312,71.0,88.0,91.0,93.0,65.0,54.0,129.0,-12.0,44.0,15.0,71.0,37.0,-104.0,106.0,-2.0,1.0,14.0,17.0,-3.0,-30.0,2.0,546.0,502.0,523.0,379.0,234.0,265.0,385.0,448.0,70.0,36.0,64.0,165.0,152.0,143.0,143.0,404.0,357.0,79.0,106.0,32.0,84.0,41.0,-48.0,23.0,33.0,17.0,-29.0,2.0,-25.0,-16.0,12.0,-11.0,-33.0,-8.0,-17.0,-38.0,-51.0,7.0,-41.0,-32.0,-78.0,-72.0,-38.0,REST
0.0375,22.0,60.0,66.0,72.0,48.0,30.0,84.0,-2.0,22.0,1.0,60.0,15.0,-129.0,75.0,-21.0,-21.0,-10.0,-1.0,-30.0,-60.0,-36.0,451.0,425.0,470.0,318.0,195.0,222.0,347.0,411.0,72.0,22.0,39.0,137.0,126.0,116.0,115.0,360.0,352.0,107.0,115.0,36.0,79.0,40.0,-37.0,22.0,10.0,9.0,-32.0,-7.0,-35.0,-22.0,5.0,-22.0,-42.0,-22.0,-14.0,-36.0,-53.0,6.0,-42.0,-23.0,-71.0,-68.0,-24.0,REST
0.0438,-11.0,45.0,59.0,64.0,35.0,7.0,37.0,-33.0,7.0,-1.0,56.0,5.0,-143.0,34.0,-29.0,-26.0,-12.0,-3.0,-24.0,-61.0,-28.0,398.0,397.0,419.0,268.0,163.0,196.0,324.0,365.0,27.0,-8.0,27.0,117.0,112.0,102.0,101.0,329.0,325.0,77.0,107.0,44.0,89.0,54.0,-4.0,16.0,11.0,6.0,-44.0,-21.0,-53.0,-35.0,-7.0,-30.0,-41.0,-24.0,-18.0,-48.0,-67.0,-2.0,-51.0,-30.0,-82.0,-75.0,-25.0,REST
0.05,-41.0,6.0,19.0,25.0,0.0,-18.0,30.0,-79.0,-35.0,-41.0,18.0,-29.0,-165.0,15.0,-72.0,-65.0,-56.0,-45.0,-61.0,-98.0,-53.0,329.0,306.0,299.0,194.0,91.0,131.0,240.0,243.0,-46.0,-77.0,-42.0,50.0,55.0,40.0,42.0,270.0,231.0,24.0,55.0,-6.0,52.0,23.0,-13.0,-24.0,-19.0,-30.0,-83.0,-64.0,-96.0,-80.0,-48.0,-63.0,-69.0,-51.0,-53.0,-87.0,-100.0,-33.0,-74.0,-58.0,-116.0,-97.0,-46.0,REST
0.0563,-74.0,-32.0,-25.0,-18.0,-37.0,-45.0,22.0,-70.0,-51.0,-67.0,-11.0,-45.0,-171.0,23.0,-84.0,-76.0,-72.0,-61.0,-70.0,-95.0,-37.0,261.0,234.0,224.0,151.0,57.0,103.0,194.0,177.0,-40.0,-85.0,-63.0,33.0,38.0,25.0,23.0,252.0,195.0,25.0,62.0,-49.0,40.0,11.0,-17.0,-30.0,-5.0,-20.0,-81.0,-50.0,-72.0,-63.0,-27.0,-40.0,-41.0,-20.0,-39.0,-72.0,-81.0,-9.0,-50.0,-43.0,-97.0,-71.0,-24.0,REST
0.0625,-63.0,-13.0,-12.0,-11.0,-32.0,-36.0,1.0,-24.0,-28.0,-55.0,2.0,-35.0,-148.0,38.0,-63.0,-53.0,-58.0,-51.0,-61.0,-78.0,-42.0,199.0,190.0,182.0,111.0,34.0,78.0,158.0,129.0,-68.0,-101.0,-83.0,16.0,21.0,2.0,-1.0,191.0,150.0,-20.0,20.0,-39.0,17.0,16.0,-33.0,-44.0,-5.0,-32.0,-92.0,-68.0,-90.0,-82.0,-54.0,-67.0,-67.0,-35.0,-54.0,-95.0,-103.0,-36.0,-78.0,-64.0,-114.0,-93.0,-48.0,REST
0.0688,-116.0,-69.0,-52.0,-35.0,-59.0,-60.0,-48.0,-109.0,-79.0,-90.0,-23.0,-65.0,-174.0,-10.0,-102.0,-86.0,-83.0,-80.0,-91.0,-113.0,-89.0,145.0,132.0,121.0,59.0,-3.0,41.0,112.0,69.0,-87.0,-127.0,-94.0,-2.0,4.0,-17.0,-20.0,137.0,117.0,6.0,-7.0,-1.0,22.0,34.0,-47.0,-29.0,-19.0,-18.0,-73.0,-58.0,-80.0,-73.0,-51.0,-68.0,-77.0,-52.0,-36.0,-77.0,-78.0,-27.0,-69.0,-42.0,-92.0,-76.0,-34.0,REST
0.075,-47.0,-15.0,-2.0,8.0,-28.0,-31.0,-8.0,-53.0,-16.0,-30.0,18.0,-22.0,-143.0,-6.0,-46.0,-26.0,-29.0,-30.0,-45.0,-72.0,-44.0,157.0,138.0,122.0,89.0,30.0,83.0,155.0,91.0,-40.0,-82.0,-32.0,52.0,54.0,37.0,32.0,190.0,168.0,20.0,30.0,14.0,50.0,55.0,-37.0,16.0,1.0,26.0,-27.0,-6.0,-27.0,-21.0,2.0,-18.0,-32.0,-16.0,-2.0,-35.0,-34.0,18.0,-32.0,-9.0,-60.0,-46.0,-8.0,REST
0.0813,-36.0,13.0,24.0,26.0,-7.0,-15.0,26.0,-37.0,2.0,-13.0,27.0,-4.0,-125.0,4.0,-31.0,-23.0,-17.0,-18.0,-37.0,-60.0,-30.0,106.0,84.0,72.0,40.0,-11.0,54.0,118.0,43.0,-98.0,-133.0,-80.0,13.0,24.0,3.0,1.0,159.0,139.0,-6.0,-15.0,-8.0,27.0,24.0,-64.0,-26.0,-18.0,-16.0,-68.0,-44.0,-64.0,-52.0,-25.0,-48.0,-53.0,-39.0,-43.0,-76.0,-67.0,-14.0,-59.0,-45.0,-92.0,-78.0,-44.0,REST
0.0875,-80.0,-41.0,-29.0,-27.0,-50.0,-61.0,-41.0,-100.0,-43.0,-55.0,-14.0,-50.0,-159.0,-24.0,-79.0,-65.0,-52.0,-54.0,-67.0,-104.0,-69.0,24.0,20.0,-1.0,-23.0,-55.0,11.0,52.0,-37.0,-130.0,-147.0,-105.0,-15.0,-4.0,-35.0,-40.0,96.0,106.0,-14.0,-8.0,8.0,27.0,30.0,-64.0,-29.0,-8.0,-6.0,-59.0,-44.0,-61.0,-44.0,-19.0,-44.0,-41.0,-24.0,-29.0,-62.0,-45.0,1.0,-40.0,-23.0,-67.0,-57.0,-21.0,REST
0.0938,-59.0,-26.0,-13.0,-16.0,-48.0,-58.0,-62.0,-77.0,-24.0,-39.0,3.0,-39.0,-156.0,-10.0,-47.0,-31.0,-24.0,-30.0,-36.0,-84.0,-38.0,23.0,37.0,8.0,-6.0,-37.0,20.0,65.0,-34.0,-85.0,-134.0,-100.0,1.0,6.0,-24.0,-30.0,88.0,128.0,1.0,21.0,-6.0,41.0,64.0,-33.0,-14.0,12.0,20.0,-32.0,-21.0,-39.0,-24.0,3.0,-23.0,-20.0,-2.0,-4.0,-40.0,-32.0,12.0,-29.0,-10.0,-50.0,-44.0,-9.0,REST
0.1,-109.0,-36.0,-23.0,-22.0,-52.0,-46.0,-37.0,-42.0,-22.0,-42.0,-2.0,-36.0,-157.0,-6.0,-46.0,-24.0,-18.0,-33.0,-44.0,-86.0,-51.0,-6.0,-17.0,-51.0,-63.0,-70.0,-20.0,18.0,-84.0,-149.0,-176.0,-130.0,-36.0,-25.0,-56.0,-60.0,39.0,91.0,-77.0,-44.0,-72.0,-20.0,3.0,-61.0,-41.0,-25.0,-10.0,-50.0,-40.0,-53.0,-41.0,-11.0,-40.0,-42.0,-41.0,-21.0,-61.0,-50.0,-8.0,-50.0,-32.0,-69.0,-56.0,-27.0,REST
0.1063,-138.0,-68.0,-53.0,-41.0,-67.0,-55.0,-59.0,-124.0,-54.0,-63.0,-12.0,-46.0,-161.0,-27.0,-92.0,-54.0,-42.0,-44.0,-49.0,-91.0,-75.0,-50.0,-64.0,-100.0,-110.0,-94.0,-37.0,-10.0,-110.0,-175.0,-195.0,-134.0,-54.0,-35.0,-67.0,-70.0,0.0,80.0,-41.0,-45.0,-24.0,-27.0,8.0,-50.0,-20.0,-34.0,-1.0,-56.0,-43.0,-49.0,-36.0,-7.0,-37.0,-33.0,-40.0,-16.0,-59.0,-46.0,1.0,-41.0,-24.0,-62.0,-50.0,-11.0,REST
0.1125,-143.0,-69.0,-37.0,-17.0,-55.0,-63.0,-66.0,-153.0,-59.0,-51.0,9.0,-37.0,-167.0,-30.0,-96.0,-47.0,-43.0,-28.0,-29.0,-76.0,-48.0,-60.0,-54.0,-85.0,-95.0,-77.0,-10.0,23.0,-90.0,-134.0,-175.0,-101.0,-34.0,-20.0,-43.0,-46.0,27.0,86.0,-11.0,-6.0,-12.0,1.0,9.0,-37.0,-45.0,-33.0,-13.0,-65.0,-52.0,-60.0,-47.0,-21.0,-40.0,-25.0,-37.0,-36.0,-79.0,-69.0,-16.0,-49.0,-43.0,-88.0,-71.0,-27.0,REST
0.1187,-125.0,-68.0,-49.0,-30.0,-70.0,-84.0,-51.0,-122.0,-64.0,-72.0,-11.0,-60.0,-202.0,-61.0,-125.0,-74.0,-72.0,-59.0,-66.0,-112.0,-73.0,-97.0,-89.0,-100.0,-136.0,-111.0,-33.0,2.0,-125.0,-192.0,-217.0,-135.0,-68.0,-50.0,-69.0,-71.0,36.0,58.0,-61.0,17.0,-58.0,42.0,-16.0,-42.0,-79.0,-16.0,-27.0,-73.0,-74.0,-77.0,-69.0,-46.0,-63.0,-50.0,-46.0,-46.0,-87.0,-72.0,-27.0,-56.0,-46.0,-94.0,-71.0,-32.0,REST
0.125,-116.0,-71.0,-58.0,-41.0,-76.0,-94.0,-40.0,-93.0,-52.0,-71.0,-14.0,-52.0,-187.0,-44.0,-92.0,-53.0,-53.0,-42.0,-55.0,-99.0,-83.0,-76.0,-72.0,-87.0,-122.0,-94.0,-21.0,14.0,-120.0,-175.0,-195.0,-117.0,-44.0,-30.0,-48.0,-53.0,34.0,63.0,-54.0,16.0,-39.0,59.0,34.0,-9.0,-23.0,10.0,33.0,-23.0,-23.0,-24.0,-17.0,6.0,-18.0,-10.0,-7.0,14.0,-30.0,-19.0,26.0,-18.0,5.0,-46.0,-32.0,13.0,REST
0.1313,-122.0,-62.0,-36.0,-17.0,-52.0,-67.0,-39.0,-63.0,-39.0,-52.0,11.0,-25.0,-137.0,3.0,-37.0,-31.0,-18.0,-13.0,-21.0,-56.0,-37.0,-83.0,-78.0,-110.0,-131.0,-99.0,-28.0,-2.0,-146.0,-143.0,-190.0,-127.0,-48.0,-36.0,-60.0,-60.0,11.0,35.0,-15.0,-35.0,4.0,14.0,53.0,-28.0,-4.0,2.0,39.0,-15.0,-25.0,-29.0,-21.0,5.0,-16.0,-14.0,-20.0,12.0,-41.0,-32.0,16.0,-29.0,-1.0,-59.0,-49.0,-1.0,REST
0.1375,-171.0,-102.0,-69.0,-45.0,-71.0,-83.0,-40.0,-135.0,-81.0,-88.0,-6.0,-54.0,-138.0,-7.0,-77.0,-70.0,-52.0,-45.0,-55.0,-85.0,-73.0,-119.0,-119.0,-166.0,-157.0,-126.0,-66.0,-40.0,-193.0,-158.0,-213.0,-151.0,-71.0,-67.0,-89.0,-89.0,-20.0,6.0,-34.0,-49.0,12.0,3.0,50.0,-46.0,-17.0,1.0,23.0,-31.0,-43.0,-49.0,-44.0,-18.0,-41.0,-36.0,-48.0,-2.0,-60.0,-49.0,0.0,-44.0,-9.0,-74.0,-61.0,-8.0,REST
0.1438,-148.0,-96.0,-71.0,-63.0,-86.0,-115.0,-73.0,-129.0,-71.0,-89.0,-12.0,-64.0,-137.0,-20.0,-72.0,-45.0,-54.0,-46.0,-69.0,-92.0,-83.0,-131.0,-134.0,-183.0,-161.0,-122.0,-78.0,-49.0,-195.0,-155.0,-200.0,-146.0,-63.0,-69.0,-93.0,-96.0,-33.0,21.0,-55.0,-25.0,-19.0,-1.0,27.0,-44.0,-31.0,1.0,11.0,-39.0,-45.0,-54.0,-55.0,-27.0,-51.0,-39.0,-43.0,-14.0,-73.0,-67.0,-8.0,-50.0,-29.0,-91.0,-73.0,-23.0,REST
0.15,-125.0,-92.0,-82.0,-78.0,-102.0,-137.0,-105.0,-121.0,-73.0,-106.0,-36.0,-84.0,-157.0,-44.0,-91.0,-53.0,-69.0,-73.0,-100.0,-112.0,-95.0,-154.0,-148.0,-181.0,-189.0,-147.0,-99.0,-71.0,-208.0,-209.0,-237.0,-179.0,-88.0,-95.0,-120.0,-121.0,-72.0,3.0,-135.0,-49.0,-64.0,-23.0,-4.0,-32.0,-62.0,-15.0,-29.0,-67.0,-80.0,-82.0,-87.0,-56.0,-77.0,-57.0,-55.0,-43.0,-95.0,-100.0,-30.0,-61.0,-55.0,-108.0,-90.0,-40.0,REST
0.1562,-126.0,-106.0,-108.0,-101.0,-127.0,-144.0,-92.0,-118.0,-86.0,-122.0,-55.0,-100.0,-176.0,-44.0,-99.0,-66.0,-74.0,-84.0,-103.0,-110.0,-86.0,-174.0,-152.0,-195.0,-191.0,-156.0,-106.0,-75.0,-210.0,-174.0,-227.0,-186.0,-92.0,-93.0,-113.0,-115.0,-63.0,4.0,-68.0,-42.0,-10.0,-15.0,29.0,-24.0,-26.0,4.0,-3.0,-48.0,-59.0,-60.0,-60.0,-27.0,-47.0,-29.0,-35.0,-16.0,-65.0,-61.0,1.0,-37.0,-25.0,-76.0,-59.0,-11.0,REST
0.1625,-136.0,-109.0,-91.0,-79.0,-98.0,-100.0,-37.0,-121.0,-82.0,-103.0,-29.0,-64.0,-133.0,5.0,-73.0,-48.0,-49.0,-57.0,-68.0,-70.0,-53.0,-173.0,-155.0,-214.0,-187.0,-151.0,-109.0,-77.0,-218.0,-163.0,-235.0,-202.0,-98.0,-96.0,-114.0,-117.0,-38.0,-4.0,-20.0,-56.0,-5.0,-48.0,30.0,-37.0,-32.0,-6.0,-3.0,-57.0,-68.0,-71.0,-65.0,-28.0,-46.0,-30.0,-29.0,-33.0,-82.0,-65.0,-16.0,-52.0,-40.0,-93.0,-70.0,-29.0,REST
0.1688,-203.0,-153.0,-128.0,-110.0,-126.0,-137.0,-98.0,-155.0,-110.0,-138.0,-48.0,-96.0,-167.0,-60.0,-107.0,-87.0,-84.0,-87.0,-99.0,-106.0,-87.0,-202.0,-187.0,-254.0,-238.0,-187.0,-147.0,-128.0,-274.0,-229.0,-282.0,-229.0,-134.0,-122.0,-154.0,-156.0,-81.0,-49.0,-56.0,-80.0,-43.0,-36.0,-8.0,-43.0,-59.0,-24.0,-24.0,-86.0,-90.0,-84.0,-84.0,-52.0,-72.0,-59.0,-48.0,-53.0,-92.0,-78.0,-33.0,-70.0,-46.0,-99.0,-75.0,-34.0,REST
0.175,-169.0,-119.0,-108.0,-103.0,-128.0,-165.0,-134.0,-79.0,-67.0,-112.0,-36.0,-104.0,-197.0,-115.0,-89.0,-60.0,-72.0,-76.0,-92.0,-119.0,-106.0,-183.0,-177.0,-235.0,-210.0,-158.0,-118.0,-108.0,-253.0,-200.0,-233.0,-179.0,-98.0,-88.0,-128.0,-132.0,-71.0,-30.0,-68.0,-57.0,-48.0,-6.0,-17.0,-11.0,-42.0,-12.0,-11.0,-77.0,-71.0,-63.0,-60.0,-37.0,-65.0,-58.0,-59.0,-41.0,-73.0,-66.0,-18.0,-65.0,-34.0,-80.0,-69.0,-24.0,REST
0.1813,-115.0,-93.0,-90.0,-82.0,-107.0,-120.0,-77.0,-78.0,-60.0,-101.0,-31.0,-76.0,-158.0,-43.0,-82.0,-59.0,-69.0,-65.0,-73.0,-98.0,-89.0,-191.0,-192.0,-242.0,-222.0,-164.0,-110.0,-95.0,-254.0,-231.0,-242.0,-194.0,-100.0,-90.0,-117.0,-120.0,-39.0,-32.0,-61.0,-91.0,-41.0,-80.0,-31.0,-16.0,-58.0,-33.0,-33.0,-88.0,-85.0,-78.0,-65.0,-32.0,-59.0,-56.0,-67.0,-56.0,-87.0,-80.0,-23.0,-71.0,-48.0,-91.0,-86.0,-41.0,REST
0.1875,-156.0,-130.0,-117.0,-93.0,-106.0,-101.0,-67.0,-156.0,-101.0,-127.0,-38.0,-66.0,-140.0,-18.0,-117.0,-98.0,-92.0,-77.0,-73.0,-92.0,-81.0,-213.0,-204.0,-251.0,-235.0,-181.0,-121.0,-105.0,-265.0,-233.0,-265.0,-218.0,-120.0,-101.0,-138.0,-140.0,-34.0,-48.0,-42.0,-74.0,-37.0,-55.0,-18.0,3.0,-62.0,-23.0,-39.0,-88.0,-82.0,-84.0,-68.0,-37.0,-63.0,-60.0,-53.0,-52.0,-80.0,-72.0,-14.0,-56.0,-29.0,-77.0,-71.0,-22.0,REST
0.1938,-195.0,-136.0,-116.0,-97.0,-119.0,-155.0,-111.0,-136.0,-97.0,-119.0,-40.0,-76.0,-177.0,-86.0,-101.0,-86.0,-77.0,-68.0,-63.0,-93.0,-93.0,-202.0,-183.0,-238.0,-208.0,-163.0,-113.0,-98.0,-249.0,-204.0,-248.0,-190.0,-100.0,-80.0,-128.0,-130.0,-18.0,-32.0,-63.0,-40.0,-56.0,-8.0,4.0,21.0,-49.0,-6.0,-16.0,-68.0,-60.0,-67.0,-45.0,-21.0,-48.0,-45.0,-40.0,-34.0,-60.0,-54.0,3.0,-35.0,-10.0,-60.0,-54.0,-10.0,REST
0.2,-175.0,-119.0,-105.0,-88.0,-106.0,-146.0,-74.0,-134.0,-95.0,-110.0,-39.0,-70.0,-145.0,-63.0,-100.0,-88.0,-73.0,-67.0,-61.0,-83.0,-89.0,-204.0,-190.0,-250.0,-211.0,-163.0,-124.0,-107.0,-252.0,-217.0,-249.0,-194.0,-109.0,-91.0,-136.0,-137.0,-19.0,-42.0,-64.0,-58.0,-31.0,-35.0,-3.0,-9.0,-67.0,-34.0,-34.0,-83.0,-84.0,-81.0,-60.0,-27.0,-56.0,-50.0,-45.0,-55.0,-77.0,-77.0,-13.0,-53.0,-33.0,-84.0,-77.0,-34.0,REST
0.2063,-180.0,-129.0,-119.0,-101.0,-108.0,-135.0,-82.0,-174.0,-109.0,-115.0,-41.0,-72.0,-120.0,-49.0,-112.0,-96.0,-76.0,-65.0,-57.0,-73.0,-80.0,-225.0,-205.0,-259.0,-226.0,-170.0,-130.0,-117.0,-274.0,-231.0,-256.0,-199.0,-111.0,-93.0,-130.0,-134.0,-14.0,-43.0,-48.0,-69.0,-18.0,-23.0,3.0,5.0,-59.0,-24.0,-21.0,-69.0,-65.0,-54.0,-37.0,2.0,-27.0,-28.0,-18.0,-33.0,-59.0,-52.0,12.0,-40.0,-21.0,-69.0,-64.0,-23.0,REST
0.2125,-166.0,-107.0,-89.0,-72.0,-84.0,-111.0,-70.0,-136.0,-79.0,-86.0,-15.0,-39.0,-93.0,-25.0,-82.0,-72.0,-47.0,-41.0,-30.0,-53.0,-65.0,-233.0,-202.0,-253.0,-229.0,-162.0,-121.0,-116.0,-284.0,-234.0,-250.0,-190.0,-104.0,-90.0,-127.0,-131.0,-7.0,-29.0,-63.0,-48.0,-44.0,0.0,-14.0,11.0,-65.0,-22.0,-23.0,-81.0,-73.0,-67.0,-56.0,-25.0,-53.0,-56.0,-47.0,-48.0,-80.0,-77.0,-21.0,-67.0,-45.0,-93.0,-90.0,-48.0,REST
0.2188,-176.0,-130.0,-121.0,-107.0,-125.0,-168.0,-109.0,-165.0,-111.0,-126.0,-61.0,-89.0,-160.0,-120.0,-119.0,-120.0,-89.0,-92.0,-81.0,-127.0,-115.0,-270.0,-244.0,-307.0,-259.0,-197.0,-163.0,-156.0,-315.0,-276.0,-286.0,-227.0,-140.0,-131.0,-169.0,-171.0,-27.0,-32.0,-100.0,-55.0,-65.0,-29.0,-29.0,6.0,-88.0,-44.0,-32.0,-104.0,-100.0,-96.0,-84.0,-57.0,-86.0,-83.0,-72.0,-62.0,-100.0,-96.0,-37.0,-81.0,-60.0,-107.0,-105.0,-52.0,REST
0.225,-193.0,-138.0,-134.0,-116.0,-138.0,-184.0,-143.0,-177.0,-118.0,-130.0,-68.0,-89.0,-154.0,-111.0,-111.0,-109.0,-85.0,-83.0,-77.0,-121.0,-106.0,-249.0,-235.0,-289.0,-218.0,-173.0,-145.0,-141.0,-290.0,-237.0,-262.0,-209.0,-116.0,-112.0,-145.0,-149.0,-35.0,-9.0,-64.0,-41.0,-34.0,-31.0,6.0,24.0,-58.0,-37.0,-1.0,-80.0,-76.0,-70.0,-54.0,-20.0,-55.0,-55.0,-46.0,-34.0,-78.0,-69.0,-10.0,-59.0,-41.0,-84.0,-89.0,-27.0,REST
0.2313,-155.0,-99.0,-98.0,-82.0,-104.0,-140.0,-113.0,-149.0,-88.0,-102.0,-39.0,-54.0,-115.0,-63.0,-93.0,-79.0,-68.0,-61.0,-63.0,-91.0,-85.0,-254.0,-223.0,-269.0,-223.0,-172.0,-126.0,-131.0,-284.0,-264.0,-268.0,-203.0,-109.0,-99.0,-131.0,-135.0,-44.0,-3.0,-100.0,-71.0,-34.0,-18.0,0.0,22.0,-70.0,-41.0,-25.0,-94.0,-89.0,-81.0,-64.0,-25.0,-62.0,-61.0,-46.0,-56.0,-95.0,-84.0,-21.0,-65.0,-50.0,-96.0,-102.0,-50.0,REST
0.2375,-171.0,-114.0,-114.0,-96.0,-110.0,-145.0,-90.0,-181.0,-111.0,-120.0,-51.0,-69.0,-134.0,-92.0,-130.0,-107.0,-87.0,-81.0,-78.0,-100.0,-97.0,-290.0,-247.0,-293.0,-250.0,-204.0,-147.0,-152.0,-306.0,-273.0,-285.0,-219.0,-129.0,-116.0,-150.0,-150.0,-75.0,-18.0,-76.0,-76.0,-17.0,-3.0,-7.0,33.0,-74.0,-21.0,-25.0,-95.0,-90.0,-75.0,-64.0,-29.0,-59.0,-48.0,-22.0,-47.0,-83.0,-71.0,-8.0,-49.0,-30.0,-81.0,-86.0,-36.0,REST
0.2438,-187.0,-117.0,-108.0,-89.0,-116.0,-164.0,-92.0,-171.0,-98.0,-106.0,-47.0,-71.0,-143.0,-106.0,-113.0,-89.0,-70.0,-65.0,-59.0,-97.0,-80.0,-259.0,-224.0,-271.0,-221.0,-175.0,-131.0,-129.0,-274.0,-234.0,-249.0,-188.0,-113.0,-105.0,-134.0,-136.0,-65.0,21.0,-50.0,-26.0,0.0,22.0,6.0,36.0,-57.0,-14.0,-5.0,-83.0,-78.0,-61.0,-56.0,-27.0,-55.0,-47.0,-32.0,-36.0,-73.0,-61.0,-8.0,-53.0,-29.0,-73.0,-79.0,-29.0,REST
0.25,-163.0,-105.0,-103.0,-83.0,-117.0,-169.0,-106.0,-147.0,-84.0,-105.0,-46.0,-71.0,-140.0,-95.0,-121.0,-94.0,-78.0,-71.0,-58.0,-106.0,-77.0,-256.0,-229.0,-270.0,-233.0,-181.0,-135.0,-130.0,-275.0,-280.0,-261.0,-190.0,-122.0,-118.0,-143.0,-145.0,-59.0,8.0,-104.0,-71.0,-27.0,-24.0,-23.0,4.0,-74.0,-52.0,-27.0,-105.0,-97.0,-81.0,-71.0,-40.0,-65.0,-62.0,-60.0,-68.0,-94.0,-77.0,-26.0,-69.0,-55.0,-88.0,-88.0,-48.0,REST
0.2563,-122.0,-95.0,-106.0,-87.0,-121.0,-171.0,-100.0,-164.0,-90.0,-111.0,-48.0,-68.0,-120.0,-83.0,-143.0,-112.0,-91.0,-78.0,-65.0,-103.0,-76.0,-246.0,-220.0,-263.0,-220.0,-176.0,-119.0,-121.0,-277.0,-266.0,-259.0,-182.0,-108.0,-112.0,-131.0,-134.0,-16.0,12.0,-100.0,-67.0,-4.0,-1.0,13.0,14.0,-67.0,-24.0,-25.0,-108.0,-91.0,-83.0,-62.0,-31.0,-60.0,-55.0,-37.0,-63.0,-87.0,-73.0,-19.0,-59.0,-49.0,-78.0,-88.0,-33.0,REST
0.2625,-154.0,-109.0,-99.0,-77.0,-110.0,-169.0,-79.0,-173.0,-102.0,-108.0,-36.0,-67.0,-114.0,-79.0,-121.0,-98.0,-91.0,-70.0,-69.0,-107.0,-97.0,-212.0,-195.0,-249.0,-184.0,-153.0,-102.0,-110.0,-272.0,-214.0,-234.0,-170.0,-92.0,-103.0,-121.0,-124.0,-18.0,12.0,-74.0,-42.0,-21.0,10.0,18.0,10.0,-67.0,-25.0,-31.0,-106.0,-89.0,-89.0,-72.0,-43.0,-76.0,-76.0,-60.0,-69.0,-98.0,-92.0,-43.0,-82.0,-59.0,-100.0,-121.0,-53.0,REST
0.2687,-192.0,-127.0,-117.0,-98.0,-128.0,-178.0,-107.0,-161.0,-113.0,-124.0,-44.0,-88.0,-122.0,-73.0,-126.0,-115.0,-114.0,-91.0,-90.0,-127.0,-108.0,-254.0,-226.0,-281.0,-238.0,-188.0,-146.0,-154.0,-315.0,-258.0,-279.0,-214.0,-131.0,-136.0,-158.0,-161.0,-80.0,-26.0,-79.0,-72.0,-29.0,-32.0,-5.0,-14.0,-78.0,-45.0,-47.0,-117.0,-111.0,-102.0,-94.0,-63.0,-94.0,-93.0,-78.0,-75.0,-108.0,-100.0,-52.0,-89.0,-64.0,-107.0,-121.0,-58.0,REST
0.275,-186.0,-128.0,-120.0,-106.0,-133.0,-174.0,-105.0,-204.0,-111.0,-118.0,-52.0,-88.0,-111.0,-77.0,-119.0,-106.0,-104.0,-79.0,-77.0,-120.0,-105.0,-246.0,-200.0,-252.0,-219.0,-156.0,-120.0,-126.0,-280.0,-221.0,-244.0,-180.0,-93.0,-102.0,-122.0,-128.0,-35.0,11.0,-24.0,-72.0,18.0,4.0,29.0,16.0,-45.0,-17.0,-13.0,-86.0,-76.0,-62.0,-58.0,-35.0,-69.0,-65.0,-41.0,-42.0,-70.0,-63.0,-20.0,-53.0,-35.0,-76.0,-79.0,-25.0,REST
0.2812,-127.0,-81.0,-77.0,-74.0,-102.0,-152.0,-69.0,-153.0,-76.0,-87.0,-35.0,-77.0,-128.0,-93.0,-83.0,-75.0,-83.0,-60.0,-77.0,-123.0,-100.0,-225.0,-184.0,-230.0,-191.0,-134.0,-92.0,-107.0,-238.0,-219.0,-230.0,-165.0,-78.0,-87.0,-113.0,-118.0,-17.0,24.0,-48.0,-91.0,21.0,-2.0,29.0,21.0,-45.0,-39.0,-18.0,-82.0,-69.0,-61.0,-62.0,-40.0,-78.0,-77.0,-61.0,-49.0,-73.0,-70.0,-31.0,-58.0,-39.0,-79.0,-76.0,-33.0,REST
0.2875,-92.0,-63.0,-65.0,-68.0,-96.0,-153.0,-95.0,-139.0,-63.0,-70.0,-27.0,-72.0,-137.0,-93.0,-76.0,-65.0,-78.0,-56.0,-83.0,-121.0,-99.0,-212.0,-182.0,-225.0,-185.0,-119.0,-78.0,-103.0,-222.0,-223.0,-204.0,-137.0,-59.0,-68.0,-100.0,-103.0,4.0,50.0,-48.0,-78.0,23.0,4.0,38.0,41.0,-22.0,-36.0,-2.0,-61.0,-46.0,-42.0,-47.0,-21.0,-62.0,-64.0,-53.0,-29.0,-61.0,-55.0,-13.0,-48.0,-22.0,-61.0,-63.0,-13.0,REST
0.2938,-99.0,-42.0,-45.0,-46.0,-77.0,-130.0,-82.0,-121.0,-39.0,-49.0,-14.0,-51.0,-113.0,-71.0,-51.0,-37.0,-60.0,-38.0,-59.0,-95.0,-83.0,-186.0,-157.0,-210.0,-163.0,-101.0,-63.0,-98.0,-227.0,-166.0,-178.0,-138.0,-58.0,-62.0,-93.0,-98.0,13.0,60.0,13.0,-53.0,44.0,5.0,58.0,54.0,-20.0,-31.0,2.0,-73.0,-51.0,-51.0,-51.0,-29.0,-65.0,-68.0,-51.0,-30.0,-73.0,-70.0,-18.0,-57.0,-35.0,-70.0,-78.0,-13.0,REST
0.3,-152.0,-86.0,-80.0,-69.0,-99.0,-144.0,-92.0,-185.0,-83.0,-88.0,-43.0,-71.0,-123.0,-77.0,-87.0,-71.0,-92.0,-69.0,-82.0,-120.0,-108.0,-214.0,-193.0,-261.0,-192.0,-143.0,-105.0,-141.0,-277.0,-197.0,-215.0,-178.0,-107.0,-110.0,-133.0,-138.0,-23.0,18.0,-32.0,-95.0,3.0,-57.0,25.0,38.0,-54.0,-58.0,-23.0,-103.0,-80.0,-86.0,-83.0,-58.0,-90.0,-92.0,-76.0,-59.0,-96.0,-95.0,-44.0,-76.0,-60.0,-97.0,-95.0,-39.0,REST
0.3063,-152.0,-106.0,-103.0,-95.0,-125.0,-159.0,-115.0,-180.0,-93.0,-103.0,-49.0,-88.0,-122.0,-68.0,-92.0,-79.0,-97.0,-76.0,-88.0,-119.0,-117.0,-214.0,-211.0,-275.0,-197.0,-154.0,-120.0,-148.0,-275.0,-209.0,-220.0,-174.0,-106.0,-117.0,-131.0,-138.0,-30.0,23.0,-54.0,-86.0,-5.0,-26.0,28.0,50.0,-37.0,-44.0,2.0,-83.0,-60.0,-67.0,-63.0,-35.0,-68.0,-64.0,-39.0,-42.0,-72.0,-64.0,-18.0,-49.0,-39.0,-82.0,-77.0,-27.0,REST
0.3125,-140.0,-90.0,-77.0,-72.0,-105.0,-145.0,-124.0,-137.0,-63.0,-81.0,-20.0,-67.0,-98.0,-62.0,-68.0,-52.0,-69.0,-50.0,-63.0,-93.0,-98.0,-211.0,-203.0,-253.0,-214.0,-153.0,-111.0,-125.0,-244.0,-231.0,-227.0,-170.0,-92.0,-106.0,-120.0,-127.0,-3.0,48.0,-32.0,-95.0,14.0,-1.0,31.0,60.0,-36.0,-36.0,-1.0,-84.0,-69.0,-69.0,-61.0,-35.0,-68.0,-68.0,-43.0,-51.0,-85.0,-74.0,-26.0,-58.0,-52.0,-99.0,-97.0,-48.0,REST
0.3188,-152.0,-102.0,-90.0,-81.0,-111.0,-148.0,-122.0,-173.0,-83.0,-99.0,-30.0,-74.0,-109.0,-50.0,-102.0,-81.0,-86.0,-68.0,-79.0,-110.0,-116.0,-198.0,-210.0,-262.0,-219.0,-158.0,-119.0,-124.0,-246.0,-228.0,-234.0,-185.0,-103.0,-112.0,-130.0,-134.0,20.0,55.0,7.0,-102.0,30.0,-11.0,29.0,56.0,-48.0,-44.0,-10.0,-97.0,-82.0,-79.0,-71.0,-43.0,-79.0,-82.0,-73.0,-60.0,-91.0,-86.0,-40.0,-70.0,-56.0,-109.0,-112.0,-50.0,REST
0.325,-162.0,-105.0,-95.0,-83.0,-116.0,-147.0,-115.0,-176.0,-80.0,-98.0,-24.0,-82.0,-128.0,-78.0,-93.0,-69.0,-85.0,-68.0,-79.0,-123.0,-111.0,-162.0,-184.0,-237.0,-199.0,-140.0,-101.0,-102.0,-213.0,-210.0,-219.0,-171.0,-83.0,-97.0,-117.0,-120.0,34.0,68.0,4.0,-81.0,23.0,4.0,22.0,64.0,-41.0,-38.0,3.0,-92.0,-69.0,-70.0,-64.0,-37.0,-73.0,-72.0,-64.0,-50.0,-85.0,-76.0,-36.0,-73.0,-51.0,-102.0,-116.0,-39.0,REST
0.3313,-142.0,-89.0,-79.0,-76.0,-110.0,-138.0,-119.0,-145.0,-62.0,-87.0,-15.0,-82.0,-126.0,-91.0,-82.0,-55.0,-81.0,-64.0,-74.0,-120.0,-99.0,-161.0,-189.0,-237.0,-201.0,-140.0,-100.0,-109.0,-229.0,-222.0,-221.0,-163.0,-82.0,-97.0,-117.0,-120.0,25.0,36.0,-59.0,-115.0,-2.0,-24.0,-24.0,46.0,-62.0,-49.0,-9.0,-105.0,-85.0,-85.0,-79.0,-50.0,-84.0,-84.0,-77.0,-73.0,-107.0,-95.0,-57.0,-100.0,-77.0,-126.0,-137.0,-67.0,REST
0.3375,-121.0,-96.0,-93.0,-87.0,-110.0,-110.0,-93.0,-149.0,-75.0,-108.0,-28.0,-87.0,-102.0,-56.0,-114.0,-90.0,-107.0,-89.0,-92.0,-126.0,-113.0,-196.0,-211.0,-253.0,-228.0,-163.0,-124.0,-116.0,-248.0,-231.0,-243.0,-175.0,-104.0,-117.0,-127.0,-129.0,22.0,50.0,-45.0,-106.0,-25.0,-7.0,-48.0,44.0,-78.0,-40.0,-13.0,-120.0,-99.0,-95.0,-91.0,-60.0,-96.0,-99.0,-84.0,-73.0,-107.0,-103.0,-58.0,-99.0,-74.0,-127.0,-135.0,-66.0,REST
0.3438,-178.0,-107.0,-98.0,-96.0,-119.0,-118.0,-133.0,-109.0,-77.0,-115.0,-33.0,-94.0,-124.0,-78.0,-92.0,-82.0,-98.0,-90.0,-98.0,-133.0,-130.0,-211.0,-213.0,-248.0,-219.0,-161.0,-121.0,-106.0,-235.0,-222.0,-234.0,-161.0,-101.0,-121.0,-126.0,-130.0,23.0,85.0,-24.0,-95.0,-21.0,31.0,-39.0,53.0,-55.0,-30.0,4.0,-110.0,-84.0,-81.0,-83.0,-52.0,-84.0,-82.0,-58.0,-55.0,-90.0,-95.0,-42.0,-82.0,-61.0,-117.0,-127.0,-55.0,REST
0.35,-140.0,-92.0,-93.0,-95.0,-124.0,-111.0,-128.0,-127.0,-79.0,-122.0,-39.0,-89.0,-111.0,-57.0,-88.0,-89.0,-93.0,-95.0,-100.0,-111.0,-109.0,-197.0,-192.0,-233.0,-205.0,-154.0,-107.0,-97.0,-230.0,-192.0,-195.0,-138.0,-88.0,-111.0,-119.0,-121.0,34.0,71.0,10.0,-118.0,43.0,16.0,-13.0,48.0,-38.0,-44.0,3.0,-107.0,-86.0,-84.0,-90.0,-54.0,-78.0,-79.0,-61.0,-58.0,-95.0,-97.0,-50.0,-92.0,-59.0,-119.0,-127.0,-55.0,REST
0.3563,-98.0,-101.0,-96.0,-83.0,-116.0,-87.0,-86.0,-164.0,-98.0,-131.0,-54.0,-89.0,-93.0,-42.0,-90.0,-99.0,-101.0,-98.0,-99.0,-104.0,-93.0,-134.0,-153.0,-222.0,-155.0,-120.0,-81.0,-77.0,-214.0,-157.0,-168.0,-118.0,-68.0,-89.0,-100.0,-101.0,39.0,91.0,31.0,-76.0,47.0,71.0,31.0,62.0,-20.0,-23.0,22.0,-91.0,-76.0,-77.0,-85.0,-48.0,-74.0,-68.0,-45.0,-38.0,-82.0,-83.0,-36.0,-81.0,-43.0,-101.0,-115.0,-31.0,REST
0.3625,-119.0,-100.0,-89.0,-68.0,-118.0,-80.0,-49.0,-121.0,-81.0,-122.0,-64.0,-96.0,-107.0,-26.0,-70.0,-84.0,-102.0,-96.0,-101.0,-115.0,-88.0,-112.0,-137.0,-209.0,-137.0,-107.0,-63.0,-58.0,-193.0,-145.0,-167.0,-119.0,-62.0,-81.0,-94.0,-96.0,54.0,102.0,4.0,-71.0,-14.0,96.0,0.0,51.0,-34.0,-33.0,9.0,-93.0,-87.0,-93.0,-100.0,-68.0,-94.0,-81.0,-60.0,-54.0,-97.0,-105.0,-53.0,-98.0,-65.0,-124.0,-134.0,-51.0,REST
0.3688,-107.0,-97.0,-105.0,-89.0,-145.0,-120.0,-82.0,-93.0,-87.0,-144.0,-95.0,-128.0,-160.0,-74.0,-97.0,-117.0,-138.0,-133.0,-142.0,-153.0,-105.0,-170.0,-162.0,-215.0,-194.0,-152.0,-87.0,-73.0,-192.0,-194.0,-212.0,-159.0,-97.0,-114.0,-126.0,-128.0,57.0,83.0,-10.0,-86.0,-3.0,64.0,-20.0,59.0,-62.0,-44.0,-30.0,-130.0,-130.0,-136.0,-140.0,-115.0,-132.0,-112.0,-73.0,-86.0,-131.0,-138.0,-83.0,-126.0,-96.0,-152.0,-162.0,-71.0,REST
0.375,-167.0,-145.0,-141.0,-121.0,-173.0,-156.0,-106.0,-181.0,-138.0,-186.0,-121.0,-161.0,-201.0,-126.0,-148.0,-162.0,-167.0,-162.0,-172.0,-183.0,-127.0,-185.0,-168.0,-218.0,-204.0,-165.0,-104.0,-85.0,-206.0,-212.0,-242.0,-183.0,-116.0,-128.0,-137.0,-141.0,49.0,67.0,-2.0,-88.0,-6.0,52.0,-1.0,64.0,-73.0,-33.0,-39.0,-146.0,-140.0,-143.0,-144.0,-119.0,-138.0,-116.0,-65.0,-82.0,-134.0,-136.0,-75.0,-120.0,-86.0,-142.0,-161.0,-54.0,REST
0.3813,-159.0,-140.0,-130.0,-113.0,-165.0,-134.0,-56.0,-156.0,-124.0,-171.0,-97.0,-148.0,-174.0,-85.0,-134.0,-138.0,-149.0,-145.0,-155.0,-165.0,-109.0,-153.0,-172.0,-222.0,-194.0,-138.0,-96.0,-84.0,-215.0,-197.0,-213.0,-153.0,-96.0,-116.0,-122.0,-125.0,51.0,67.0,-31.0,-89.0,-5.0,-10.0,-41.0,38.0,-68.0,-55.0,-42.0,-138.0,-131.0,-130.0,-133.0,-99.0,-122.0,-106.0,-81.0,-84.0,-134.0,-134.0,-67.0,-113.0,-79.0,-140.0,-149.0,-56.0,REST
0.3875,-96.0,-102.0,-103.0,-85.0,-133.0,-100.0,-30.0,-107.0,-94.0,-147.0,-68.0,-118.0,-132.0,-47.0,-111.0,-116.0,-134.0,-129.0,-133.0,-142.0,-99.0,-122.0,-173.0,-239.0,-175.0,-118.0,-81.0,-80.0,-229.0,-178.0,-190.0,-125.0,-73.0,-90.0,-101.0,-103.0,58.0,87.0,-25.0,-51.0,7.0,22.0,-43.0,51.0,-56.0,-29.0,-26.0,-121.0,-108.0,-110.0,-111.0,-78.0,-110.0,-96.0,-58.0,-73.0,-116.0,-111.0,-49.0,-93.0,-60.0,-118.0,-123.0,-44.0,REST
0.3938,-98.0,-67.0,-61.0,-44.0,-93.0,-87.0,-42.0,-80.0,-55.0,-106.0,-33.0,-86.0,-125.0,-76.0,-86.0,-84.0,-95.0,-92.0,-101.0,-125.0,-110.0,-93.0,-118.0,-186.0,-119.0,-76.0,-33.0,-26.0,-177.0,-133.0,-148.0,-82.0,-29.0,-45.0,-53.0,-56.0,112.0,147.0,13.0,-7.0,30.0,103.0,-11.0,81.0,-39.0,-5.0,-10.0,-110.0,-84.0,-91.0,-88.0,-51.0,-85.0,-71.0,-20.0,-66.0,-101.0,-93.0,-25.0,-72.0,-53.0,-109.0,-107.0,-43.0,REST
0.4,-108.0,-74.0,-55.0,-29.0,-77.0,-70.0,-34.0,-110.0,-65.0,-103.0,-20.0,-70.0,-103.0,-67.0,-106.0,-102.0,-95.0,-92.0,-93.0,-115.0,-96.0,-128.0,-126.0,-188.0,-144.0,-96.0,-42.0,-33.0,-177.0,-185.0,-200.0,-113.0,-47.0,-59.0,-58.0,-59.0,129.0,129.0,-13.0,-53.0,-2.0,73.0,-42.0,58.0,-62.0,-26.0,-42.0,-130.0,-99.0,-108.0,-100.0,-59.0,-82.0,-72.0,-40.0,-89.0,-120.0,-114.0,-35.0,-82.0,-69.0,-127.0,-118.0,-63.0,REST
0.4062,-132.0,-95.0,-66.0,-30.0,-73.0,-60.0,-21.0,-158.0,-79.0,-103.0,-17.0,-56.0,-71.0,-28.0,-108.0,-110.0,-95.0,-83.0,-80.0,-88.0,-74.0,-152.0,-154.0,-208.0,-142.0,-92.0,-45.0,-47.0,-191.0,-147.0,-194.0,-115.0,-34.0,-51.0,-51.0,-53.0,125.0,117.0,34.0,-25.0,24.0,76.0,-29.0,71.0,-37.0,-10.0,-20.0,-106.0,-68.0,-76.0,-67.0,-29.0,-51.0,-51.0,-29.0,-57.0,-90.0,-82.0,-5.0,-58.0,-41.0,-100.0,-97.0,-39.0,REST
0.4125,-87.0,-56.0,-25.0,-3.0,-49.0,-54.0,-26.0,-114.0,-32.0,-59.0,11.0,-30.0,-60.0,-11.0,-63.0,-69.0,-54.0,-42.0,-51.0,-62.0,-53.0,-149.0,-150.0,-219.0,-144.0,-87.0,-39.0,-45.0,-174.0,-150.0,-185.0,-108.0,-26.0,-37.0,-47.0,-48.0,103.0,120.0,17.0,-15.0,-22.0,61.0,-22.0,68.0,-36.0,-20.0,-18.0,-103.0,-66.0,-71.0,-58.0,-21.0,-48.0,-52.0,-27.0,-65.0,-95.0,-86.0,-8.0,-68.0,-60.0,-112.0,-109.0,-60.0,REST
0.4188,-96.0,-60.0,-36.0,-18.0,-60.0,-60.0,-26.0,-81.0,-29.0,-65.0,-4.0,-35.0,-79.0,-36.0,-76.0,-73.0,-67.0,-54.0,-62.0,-88.0,-77.0,-184.0,-195.0,-256.0,-190.0,-124.0,-65.0,-72.0,-196.0,-193.0,-218.0,-130.0,-53.0,-65.0,-73.0,-74.0,68.0,81.0,-52.0,-51.0,-94.0,55.0,-69.0,51.0,-60.0,-26.0,-33.0,-116.0,-74.0,-76.0,-67.0,-22.0,-57.0,-59.0,-29.0,-76.0,-100.0,-87.0,-9.0,-69.0,-65.0,-117.0,-103.0,-68.0,REST
0.425,-92.0,-47.0,-34.0,-21.0,-63.0,-59.0,-31.0,-43.0,-10.0,-54.0,3.0,-27.0,-76.0,-54.0,-51.0,-52.0,-53.0,-42.0,-45.0,-84.0,-70.0,-182.0,-201.0,-247.0,-199.0,-121.0,-62.0,-81.0,-216.0,-178.0,-198.0,-112.0,-45.0,-67.0,-72.0,-76.0,40.0,61.0,-40.0,-38.0,-38.0,72.0,-75.0,65.0,-40.0,3.0,-5.0,-98.0,-48.0,-53.0,-43.0,0.0,-41.0,-42.0,-25.0,-49.0,-84.0,-61.0,10.0,-54.0,-45.0,-98.0,-78.0,-55.0,REST
0.4313,-49.0,-45.0,-36.0,-24.0,-69.0,-55.0,-67.0,-95.0,-33.0,-62.0,1.0,-35.0,-80.0,-54.0,-67.0,-65.0,-60.0,-50.0,-55.0,-87.0,-70.0,-219.0,-220.0,-282.0,-225.0,-153.0,-99.0,-110.0,-253.0,-181.0,-225.0,-150.0,-80.0,-96.0,-103.0,-106.0,32.0,63.0,10.0,-49.0,16.0,64.0,-70.0,45.0,-50.0,-14.0,-24.0,-119.0,-76.0,-84.0,-71.0,-34.0,-68.0,-68.0,-52.0,-69.0,-114.0,-88.0,-23.0,-79.0,-64.0,-122.0,-110.0,-80.0,REST
0.4375,-162.0,-119.0,-83.0,-55.0,-95.0,-80.0,-57.0,-161.0,-82.0,-95.0,-30.0,-57.0,-106.0,-50.0,-91.0,-97.0,-82.0,-72.0,-72.0,-106.0,-76.0,-239.0,-237.0,-303.0,-229.0,-171.0,-108.0,-111.0,-243.0,-187.0,-257.0,-160.0,-82.0,-88.0,-94.0,-96.0,72.0,98.0,27.0,-37.0,7.0,60.0,-32.0,51.0,-33.0,-9.0,-3.0,-105.0,-62.0,-68.0,-59.0,-25.0,-50.0,-54.0,-42.0,-49.0,-97.0,-75.0,-11.0,-69.0,-45.0,-111.0,-112.0,-61.0,REST
0.4437,-126.0,-73.0,-32.0,-3.0,-55.0,-62.0,-27.0,-109.0,-29.0,-51.0,3.0,-22.0,-80.0,-32.0,-47.0,-53.0,-41.0,-34.0,-42.0,-74.0,-48.0,-193.0,-196.0,-259.0,-187.0,-122.0,-59.0,-74.0,-205.0,-147.0,-211.0,-111.0,-37.0,-46.0,-62.0,-66.0,86.0,117.0,14.0,0.0,16.0,77.0,-4.0,77.0,-10.0,16.0,24.0,-84.0,-39.0,-49.0,-44.0,-18.0,-43.0,-46.0,-19.0,-33.0,-86.0,-67.0,-6.0,-62.0,-36.0,-95.0,-104.0,-48.0,REST
0.45,-86.0,-51.0,-18.0,7.0,-63.0,-104.0,-77.0,-92.0,-26.0,-54.0,-1.0,-44.0,-129.0,-86.0,-53.0,-54.0,-43.0,-49.0,-66.0,-105.0,-73.0,-183.0,-200.0,-252.0,-184.0,-122.0,-67.0,-89.0,-222.0,-131.0,-199.0,-120.0,-51.0,-55.0,-87.0,-89.0,39.0,91.0,5.0,-36.0,-15.0,58.0,-32.0,43.0,-23.0,1.0,-11.0,-100.0,-49.0,-65.0,-61.0,-32.0,-59.0,-60.0,-26.0,-53.0,-98.0,-78.0,-21.0,-70.0,-43.0,-102.0,-107.0,-64.0,REST
0.4563,-92.0,-58.0,-27.0,-1.0,-66.0,-107.0,-66.0,-79.0,-24.0,-52.0,10.0,-40.0,-120.0,-71.0,-59.0,-51.0,-40.0,-43.0,-53.0,-85.0,-54.0,-173.0,-194.0,-253.0,-180.0,-119.0,-65.0,-93.0,-225.0,-135.0,-194.0,-112.0,-38.0,-36.0,-71.0,-76.0,14.0,93.0,26.0,-54.0,-16.0,50.0,-29.0,15.0,-6.0,1.0,4.0,-77.0,-20.0,-33.0,-26.0,5.0,-28.0,-39.0,-21.0,-22.0,-62.0,-42.0,11.0,-44.0,-13.0,-74.0,-74.0,-39.0,REST
0.4625,-91.0,-45.0,-4.0,27.0,-35.0,-82.0,-42.0,-81.0,-3.0,-25.0,39.0,-3.0,-85.0,-38.0,-35.0,-24.0,-11.0,-8.0,-17.0,-45.0,-44.0,-177.0,-182.0,-259.0,-180.0,-112.0,-58.0,-90.0,-211.0,-162.0,-202.0,-102.0,-29.0,-22.0,-55.0,-60.0,13.0,106.0,14.0,-48.0,-11.0,51.0,-18.0,13.0,6.0,4.0,16.0,-62.0,-6.0,-20.0,-14.0,16.0,-24.0,-43.0,-24.0,-16.0,-59.0,-40.0,12.0,-47.0,-17.0,-78.0,-80.0,-46.0,REST
0.4688,-39.0,-18.0,-1.0,27.0,-32.0,-96.0,-64.0,-58.0,12.0,-20.0,32.0,-8.0,-91.0,-45.0,-43.0,-30.0,-20.0,-18.0,-31.0,-62.0,-71.0,-196.0,-213.0,-282.0,-201.0,-127.0,-70.0,-109.0,-235.0,-167.0,-218.0,-114.0,-42.0,-32.0,-71.0,-75.0,-6.0,90.0,18.0,-68.0,-2.0,62.0,-24.0,2.0,-2.0,-6.0,8.0,-71.0,-29.0,-42.0,-33.0,-1.0,-33.0,-50.0,-29.0,-35.0,-78.0,-58.0,5.0,-59.0,-34.0,-87.0,-96.0,-55.0,REST
0.475,-88.0,-36.0,-3.0,29.0,-29.0,-109.0,-61.0,-89.0,-15.0,-28.0,34.0,-18.0,-118.0,-68.0,-45.0,-41.0,-29.0,-25.0,-29.0,-67.0,-45.0,-168.0,-180.0,-228.0,-164.0,-100.0,-37.0,-67.0,-194.0,-109.0,-188.0,-94.0,-23.0,-7.0,-45.0,-50.0,43.0,129.0,72.0,-29.0,43.0,81.0,24.0,25.0,14.0,25.0,19.0,-74.0,-34.0,-39.0,-31.0,-1.0,-29.0,-42.0,-15.0,-28.0,-77.0,-57.0,6.0,-60.0,-29.0,-87.0,-99.0,-46.0,REST
0.4813,-75.0,-31.0,12.0,46.0,-18.0,-97.0,-34.0,-85.0,-20.0,-34.0,40.0,-18.0,-117.0,-39.0,-36.0,-45.0,-36.0,-31.0,-34.0,-77.0,-54.0,-157.0,-163.0,-221.0,-143.0,-84.0,-31.0,-62.0,-197.0,-109.0,-167.0,-82.0,-22.0,-6.0,-39.0,-44.0,51.0,107.0,59.0,-65.0,18.0,32.0,4.0,7.0,1.0,11.0,2.0,-86.0,-49.0,-51.0,-53.0,-21.0,-48.0,-61.0,-34.0,-48.0,-104.0,-78.0,-22.0,-78.0,-48.0,-114.0,-119.0,-68.0,REST
0.4875,-75.0,-33.0,-1.0,34.0,-27.0,-81.0,-20.0,-66.0,-16.0,-50.0,28.0,-19.0,-87.0,-6.0,-51.0,-61.0,-58.0,-50.0,-51.0,-87.0,-70.0,-190.0,-194.0,-268.0,-176.0,-100.0,-60.0,-93.0,-239.0,-136.0,-190.0,-95.0,-36.0,-26.0,-59.0,-64.0,27.0,73.0,31.0,-80.0,-13.0,53.0,-3.0,2.0,-10.0,-5.0,-5.0,-89.0,-52.0,-61.0,-65.0,-35.0,-59.0,-72.0,-46.0,-52.0,-110.0,-82.0,-28.0,-79.0,-49.0,-113.0,-117.0,-58.0,REST
0.4938,-77.0,-42.0,-7.0,22.0,-48.0,-121.0,-90.0,-60.0,-13.0,-45.0,20.0,-35.0,-127.0,-72.0,-41.0,-49.0,-50.0,-46.0,-52.0,-97.0,-68.0,-181.0,-189.0,-253.0,-159.0,-97.0,-59.0,-86.0,-213.0,-123.0,-193.0,-92.0,-29.0,-27.0,-62.0,-69.0,28.0,105.0,63.0,-22.0,14.0,93.0,22.0,33.0,3.0,5.0,13.0,-74.0,-36.0,-53.0,-55.0,-31.0,-54.0,-69.0,-48.0,-42.0,-98.0,-76.0,-18.0,-68.0,-46.0,-113.0,-102.0,-53.0,REST
0.5,-90.0,-54.0,-19.0,5.0,-70.0,-137.0,-135.0,-52.0,-19.0,-48.0,5.0,-50.0,-149.0,-92.0,-35.0,-53.0,-53.0,-57.0,-69.0,-112.0,-79.0,-192.0,-218.0,-275.0,-178.0,-134.0,-92.0,-121.0,-243.0,-168.0,-235.0,-125.0,-63.0,-62.0,-100.0,-105.0,1.0,61.0,-9.0,-76.0,-48.0,45.0,-35.0,7.0,-21.0,-11.0,-13.0,-92.0,-60.0,-78.0,-80.0,-54.0,-73.0,-87.0,-58.0,-72.0,-126.0,-102.0,-35.0,-82.0,-69.0,-137.0,-116.0,-73.0,REST
0.5062,-116.0,-77.0,-50.0,-17.0,-92.0,-128.0,-106.0,-80.0,-49.0,-76.0,-14.0,-61.0,-140.0,-63.0,-78.0,-83.0,-81.0,-77.0,-81.0,-113.0,-80.0,-199.0,-223.0,-276.0,-192.0,-138.0,-96.0,-114.0,-240.0,-180.0,-251.0,-130.0,-63.0,-60.0,-88.0,-93.0,26.0,60.0,-8.0,-87.0,7.0,45.0,-10.0,2.0,-40.0,6.0,-19.0,-106.0,-73.0,-75.0,-73.0,-39.0,-53.0,-63.0,-22.0,-58.0,-114.0,-82.0,-12.0,-61.0,-46.0,-113.0,-91.0,-41.0,REST
0.5125,-140.0,-93.0,-43.0,1.0,-73.0,-96.0,-59.0,-146.0,-67.0,-76.0,-1.0,-42.0,-134.0,-37.0,-89.0,-78.0,-81.0,-65.0,-64.0,-95.0,-64.0,-195.0,-193.0,-257.0,-177.0,-124.0,-70.0,-93.0,-222.0,-152.0,-237.0,-120.0,-47.0,-42.0,-78.0,-84.0,28.0,72.0,36.0,-51.0,31.0,30.0,1.0,22.0,-28.0,-6.0,-12.0,-96.0,-70.0,-69.0,-67.0,-32.0,-48.0,-56.0,-24.0,-46.0,-103.0,-78.0,-10.0,-58.0,-42.0,-106.0,-89.0,-41.0,REST
0.5188,-130.0,-83.0,-43.0,-5.0,-80.0,-116.0,-84.0,-113.0,-53.0,-77.0,-2.0,-44.0,-153.0,-44.0,-82.0,-74.0,-77.0,-64.0,-64.0,-95.0,-56.0,-216.0,-211.0,-278.0,-194.0,-135.0,-77.0,-117.0,-254.0,-166.0,-227.0,-112.0,-53.0,-46.0,-91.0,-97.0,-4.0,50.0,3.0,-63.0,-13.0,32.0,-43.0,14.0,-27.0,-1.0,-12.0,-89.0,-62.0,-64.0,-56.0,-24.0,-46.0,-54.0,-18.0,-42.0,-92.0,-71.0,-3.0,-51.0,-34.0,-98.0,-80.0,-41.0,REST
0.525,-69.0,-47.0,-22.0,7.0,-73.0,-100.0,-45.0,-56.0,-18.0,-55.0,15.0,-32.0,-145.0,-51.0,-56.0,-51.0,-46.0,-44.0,-46.0,-90.0,-69.0,-193.0,-203.0,-256.0,-186.0,-112.0,-59.0,-99.0,-235.0,-162.0,-192.0,-80.0,-30.0,-24.0,-67.0,-74.0,0.0,64.0,-6.0,-58.0,-8.0,88.0,-51.0,31.0,-19.0,27.0,10.0,-68.0,-34.0,-35.0,-30.0,-4.0,-33.0,-44.0,-5.0,-23.0,-71.0,-49.0,9.0,-40.0,-16.0,-81.0,-60.0,-28.0,REST
0.5312,-41.0,-33.0,-12.0,12.0,-71.0,-103.0,-35.0,-60.0,-14.0,-51.0,20.0,-33.0,-158.0,-67.0,-56.0,-58.0,-46.0,-43.0,-50.0,-103.0,-82.0,-201.0,-228.0,-277.0,-205.0,-129.0,-89.0,-122.0,-254.0,-165.0,-215.0,-115.0,-67.0,-58.0,-105.0,-108.0,-42.0,30.0,3.0,-77.0,-8.0,32.0,-62.0,23.0,-44.0,-14.0,-14.0,-79.0,-48.0,-53.0,-51.0,-25.0,-55.0,-70.0,-46.0,-39.0,-88.0,-68.0,-15.0,-56.0,-30.0,-100.0,-72.0,-49.0,REST
0.5375,-130.0,-98.0,-70.0,-39.0,-109.0,-152.0,-79.0,-108.0,-60.0,-92.0,-14.0,-58.0,-180.0,-64.0,-80.0,-93.0,-73.0,-63.0,-64.0,-111.0,-85.0,-225.0,-252.0,-319.0,-218.0,-155.0,-125.0,-156.0,-282.0,-184.0,-249.0,-153.0,-101.0,-98.0,-135.0,-139.0,-69.0,10.0,-15.0,-111.0,-17.0,-5.0,-53.0,2.0,-39.0,-21.0,-3.0,-68.0,-37.0,-49.0,-42.0,-14.0,-41.0,-60.0,-33.0,-18.0,-67.0,-50.0,8.0,-32.0,-1.0,-76.0,-47.0,-17.0,REST
0.5438,-146.0,-113.0,-75.0,-50.0,-115.0,-158.0,-88.0,-100.0,-52.0,-81.0,-15.0,-54.0,-185.0,-71.0,-60.0,-71.0,-60.0,-45.0,-49.0,-98.0,-70.0,-234.0,-242.0,-312.0,-219.0,-161.0,-124.0,-157.0,-276.0,-193.0,-249.0,-154.0,-97.0,-102.0,-132.0,-139.0,-55.0,25.0,-3.0,-73.0,4.0,35.0,-30.0,13.0,-25.0,2.0,8.0,-62.0,-34.0,-46.0,-37.0,-13.0,-42.0,-58.0,-27.0,-15.0,-65.0,-51.0,10.0,-32.0,-2.0,-73.0,-44.0,-9.0,REST
0.55,-128.0,-111.0,-81.0,-62.0,-128.0,-177.0,-97.0,-123.0,-60.0,-87.0,-29.0,-66.0,-222.0,-115.0,-76.0,-83.0,-72.0,-61.0,-65.0,-118.0,-96.0,-241.0,-244.0,-298.0,-216.0,-164.0,-132.0,-171.0,-283.0,-174.0,-231.0,-150.0,-99.0,-106.0,-139.0,-145.0,-42.0,20.0,27.0,-98.0,6.0,15.0,-46.0,22.0,-28.0,-10.0,-21.0,-78.0,-54.0,-60.0,-58.0,-32.0,-58.0,-73.0,-49.0,-41.0,-86.0,-71.0,-12.0,-55.0,-23.0,-100.0,-67.0,-34.0,REST
0.5563,-112.0,-92.0,-67.0,-51.0,-107.0,-127.0,-55.0,-102.0,-50.0,-72.0,-12.0,-33.0,-175.0,-70.0,-55.0,-63.0,-54.0,-40.0,-39.0,-86.0,-75.0,-201.0,-222.0,-270.0,-186.0,-121.0,-98.0,-135.0,-262.0,-132.0,-190.0,-108.0,-55.0,-62.0,-92.0,-101.0,-6.0,33.0,55.0,-99.0,29.0,35.0,-17.0,46.0,4.0,14.0,-1.0,-45.0,-18.0,-23.0,-17.0,11.0,-14.0,-34.0,-14.0,-5.0,-51.0,-35.0,22.0,-25.0,14.0,-70.0,-52.0,-4.0,REST
0.5625,-91.0,-53.0,-24.0,-6.0,-64.0,-78.0,-33.0,-57.0,-13.0,-34.0,23.0,5.0,-147.0,-43.0,-22.0,-22.0,-16.0,-6.0,-9.0,-59.0,-46.0,-172.0,-196.0,-260.0,-165.0,-100.0,-74.0,-110.0,-235.0,-143.0,-186.0,-106.0,-50.0,-51.0,-86.0,-92.0,-8.0,49.0,39.0,-65.0,13.0,49.0,-21.0,56.0,-4.0,11.0,-5.0,-42.0,-18.0,-30.0,-23.0,-3.0,-30.0,-50.0,-23.0,-13.0,-61.0,-57.0,-6.0,-44.0,1.0,-83.0,-77.0,-24.0,REST
0.5687,-121.0,-87.0,-62.0,-41.0,-93.0,-129.0,-56.0,-86.0,-42.0,-69.0,-10.0,-40.0,-201.0,-74.0,-70.0,-64.0,-56.0,-48.0,-54.0,-100.0,-85.0,-227.0,-225.0,-303.0,-201.0,-148.0,-110.0,-144.0,-262.0,-190.0,-224.0,-147.0,-97.0,-93.0,-122.0,-127.0,-29.0,58.0,9.0,-70.0,-2.0,11.0,-55.0,56.0,-33.0,-20.0,-25.0,-73.0,-48.0,-57.0,-53.0,-32.0,-55.0,-68.0,-25.0,-31.0,-80.0,-77.0,-22.0,-57.0,-11.0,-91.0,-77.0,-36.0,REST
0.575,-122.0,-99.0,-78.0,-54.0,-104.0,-152.0,-54.0,-99.0,-48.0,-76.0,-12.0,-48.0,-193.0,-54.0,-76.0,-65.0,-63.0,-51.0,-50.0,-90.0,-74.0,-214.0,-215.0,-276.0,-185.0,-138.0,-95.0,-129.0,-246.0,-156.0,-201.0,-126.0,-78.0,-79.0,-106.0,-114.0,-8.0,80.0,33.0,-71.0,29.0,-5.0,-19.0,71.0,-17.0,-17.0,-1.0,-66.0,-30.0,-37.0,-32.0,-14.0,-33.0,-44.0,-16.0,-11.0,-60.0,-58.0,3.0,-39.0,8.0,-73.0,-59.0,-16.0,REST
0.5813,-111.0,-72.0,-57.0,-33.0,-82.0,-125.0,-53.0,-74.0,-33.0,-73.0,-3.0,-40.0,-177.0,-50.0,-72.0,-58.0,-62.0,-54.0,-53.0,-94.0,-61.0,-180.0,-201.0,-247.0,-169.0,-125.0,-84.0,-114.0,-231.0,-153.0,-200.0,-130.0,-79.0,-81.0,-108.0,-112.0,-4.0,74.0,-11.0,-93.0,-8.0,-10.0,-46.0,54.0,-48.0,-30.0,-28.0,-91.0,-52.0,-66.0,-63.0,-55.0,-74.0,-83.0,-61.0,-42.0,-83.0,-90.0,-37.0,-73.0,-22.0,-107.0,-97.0,-53.0,REST
0.5875,-105.0,-82.0,-78.0,-57.0,-107.0,-142.0,-63.0,-91.0,-55.0,-106.0,-43.0,-80.0,-233.0,-111.0,-95.0,-95.0,-93.0,-92.0,-93.0,-150.0,-119.0,-211.0,-222.0,-248.0,-195.0,-140.0,-96.0,-113.0,-227.0,-173.0,-215.0,-141.0,-86.0,-86.0,-107.0,-110.0,6.0,103.0,-10.0,-85.0,-49.0,-3.0,-64.0,46.0,-60.0,-27.0,-31.0,-96.0,-56.0,-65.0,-63.0,-54.0,-74.0,-86.0,-59.0,-39.0,-78.0,-83.0,-27.0,-62.0,-17.0,-100.0,-89.0,-42.0,REST
0.5938,-80.0,-49.0,-40.0,-16.0,-70.0,-96.0,-5.0,-46.0,-18.0,-62.0,-10.0,-35.0,-173.0,-51.0,-53.0,-56.0,-53.0,-49.0,-51.0,-95.0,-72.0,-176.0,-184.0,-213.0,-157.0,-101.0,-55.0,-69.0,-197.0,-138.0,-162.0,-88.0,-36.0,-43.0,-57.0,-64.0,48.0,139.0,4.0,-62.0,-28.0,-6.0,-50.0,52.0,-34.0,-5.0,-12.0,-81.0,-44.0,-43.0,-37.0,-21.0,-39.0,-59.0,-34.0,-30.0,-78.0,-72.0,-7.0,-48.0,-20.0,-100.0,-84.0,-30.0,REST
0.6,-86.0,-56.0,-40.0,-10.0,-59.0,-81.0,-24.0,-77.0,-45.0,-69.0,-13.0,-33.0,-169.0,-56.0,-84.0,-94.0,-69.0,-62.0,-77.0,-102.0,-94.0,-196.0,-194.0,-250.0,-171.0,-144.0,-93.0,-102.0,-240.0,-181.0,-212.0,-146.0,-81.0,-86.0,-99.0,-105.0,2.0,98.0,-11.0,-84.0,-45.0,3.0,-62.0,46.0,-64.0,-27.0,-50.0,-115.0,-88.0,-83.0,-77.0,-57.0,-77.0,-95.0,-63.0,-62.0,-111.0,-99.0,-38.0,-74.0,-47.0,-125.0,-108.0,-46.0,REST
0.6063,-192.0,-117.0,-93.0,-52.0,-102.0,-124.0,-61.0,-86.0,-81.0,-102.0,-49.0,-76.0,-224.0,-91.0,-103.0,-127.0,-91.0,-87.0,-106.0,-133.0,-114.0,-223.0,-222.0,-276.0,-202.0,-178.0,-119.0,-120.0,-249.0,-204.0,-247.0,-174.0,-108.0,-105.0,-118.0,-125.0,-3.0,109.0,-49.0,-51.0,-88.0,25.0,-75.0,60.0,-70.0,-16.0,-42.0,-105.0,-76.0,-73.0,-68.0,-51.0,-70.0,-77.0,-41.0,-46.0,-93.0,-81.0,-20.0,-56.0,-24.0,-100.0,-94.0,-27.0,REST
0.6125,-184.0,-116.0,-93.0,-64.0,-117.0,-134.0,-64.0,-68.0,-76.0,-103.0,-53.0,-86.0,-234.0,-82.0,-105.0,-125.0,-91.0,-88.0,-106.0,-133.0,-101.0,-220.0,-228.0,-270.0,-202.0,-175.0,-122.0,-128.0,-245.0,-191.0,-224.0,-181.0,-118.0,-116.0,-136.0,-143.0,-14.0,103.0,-53.0,-59.0,-42.0,-5.0,-101.0,46.0,-87.0,-32.0,-59.0,-125.0,-93.0,-91.0,-88.0,-77.0,-92.0,-97.0,-51.0,-67.0,-113.0,-110.0,-45.0,-79.0,-48.0,-122.0,-116.0,-55.0,REST
0.6188,-150.0,-135.0,-118.0,-101.0,-148.0,-156.0,-78.0,-155.0,-104.0,-127.0,-80.0,-115.0,-246.0,-101.0,-146.0,-153.0,-123.0,-118.0,-134.0,-159.0,-138.0,-232.0,-241.0,-279.0,-223.0,-183.0,-139.0,-145.0,-261.0,-177.0,-214.0,-193.0,-127.0,-128.0,-146.0,-153.0,-12.0,92.0,-3.0,-110.0,-22.0,-65.0,-105.0,10.0,-78.0,-72.0,-59.0,-122.0,-96.0,-98.0,-97.0,-79.0,-94.0,-116.0,-84.0,-62.0,-111.0,-109.0,-46.0,-88.0,-44.0,-125.0,-115.0,-52.0,REST
0.625,-149.0,-121.0,-101.0,-79.0,-117.0,-107.0,-14.0,-129.0,-83.0,-100.0,-65.0,-72.0,-167.0,-22.0,-115.0,-120.0,-99.0,-89.0,-96.0,-110.0,-98.0,-204.0,-220.0,-253.0,-216.0,-168.0,-111.0,-117.0,-233.0,-207.0,-238.0,-174.0,-100.0,-107.0,-113.0,-120.0,15.0,110.0,-13.0,-93.0,-23.0,-18.0,-65.0,18.0,-55.0,-42.0,-35.0,-100.0,-72.0,-80.0,-76.0,-55.0,-72.0,-93.0,-68.0,-40.0,-99.0,-91.0,-30.0,-71.0,-29.0,-114.0,-107.0,-29.0,REST
0.6313,-162.0,-106.0,-87.0,-62.0,-109.0,-128.0,-21.0,-103.0,-73.0,-81.0,-50.0,-71.0,-204.0,-72.0,-99.0,-102.0,-83.0,-79.0,-92.0,-124.0,-94.0,-186.0,-208.0,-249.0,-202.0,-159.0,-98.0,-103.0,-212.0,-205.0,-230.0,-163.0,-88.0,-100.0,-105.0,-110.0,17.0,122.0,-47.0,-37.0,-21.0,51.0,-51.0,33.0,-46.0,-18.0,-34.0,-95.0,-68.0,-77.0,-70.0,-52.0,-68.0,-82.0,-53.0,-40.0,-94.0,-90.0,-28.0,-62.0,-23.0,-110.0,-101.0,-32.0,REST
0.6375,-127.0,-102.0,-84.0,-53.0,-98.0,-123.0,3.0,-96.0,-75.0,-74.0,-38.0,-66.0,-189.0,-65.0,-95.0,-102.0,-88.0,-77.0,-86.0,-118.0,-79.0,-190.0,-212.0,-251.0,-197.0,-157.0,-105.0,-101.0,-205.0,-201.0,-230.0,-167.0,-95.0,-107.0,-115.0,-119.0,-17.0,105.0,-31.0,-54.0,-27.0,52.0,-55.0,34.0,-51.0,-23.0,-41.0,-99.0,-79.0,-79.0,-75.0,-53.0,-70.0,-79.0,-41.0,-46.0,-95.0,-90.0,-27.0,-60.0,-26.0,-107.0,-97.0,-29.0,REST
0.6438,-201.0,-137.0,-110.0,-84.0,-128.0,-159.0,-30.0,-130.0,-107.0,-102.0,-68.0,-90.0,-204.0,-93.0,-109.0,-122.0,-108.0,-91.0,-92.0,-127.0,-102.0,-206.0,-222.0,-258.0,-209.0,-171.0,-140.0,-138.0,-234.0,-209.0,-252.0,-183.0,-121.0,-138.0,-148.0,-155.0,-70.0,54.0,-20.0,-89.0,-48.0,23.0,-67.0,26.0,-70.0,-40.0,-60.0,-118.0,-97.0,-89.0,-90.0,-65.0,-84.0,-93.0,-51.0,-63.0,-110.0,-102.0,-37.0,-67.0,-41.0,-120.0,-108.0,-37.0,REST
0.65,-212.0,-149.0,-136.0,-120.0,-167.0,-208.0,-68.0,-147.0,-116.0,-122.0,-97.0,-114.0,-237.0,-125.0,-129.0,-135.0,-125.0,-111.0,-115.0,-147.0,-121.0,-230.0,-256.0,-285.0,-228.0,-190.0,-166.0,-169.0,-256.0,-233.0,-258.0,-183.0,-143.0,-165.0,-179.0,-186.0,-78.0,34.0,-57.0,-86.0,-59.0,-16.0,-92.0,34.0,-76.0,-33.0,-76.0,-114.0,-89.0,-90.0,-93.0,-72.0,-91.0,-99.0,-46.0,-67.0,-107.0,-105.0,-36.0,-60.0,-38.0,-121.0,-104.0,-43.0,REST
0.6562,-143.0,-107.0,-114.0,-109.0,-156.0,-197.0,-58.0,-101.0,-73.0,-97.0,-82.0,-97.0,-213.0,-89.0,-97.0,-98.0,-95.0,-89.0,-103.0,-126.0,-107.0,-225.0,-233.0,-270.0,-199.0,-168.0,-135.0,-139.0,-232.0,-204.0,-216.0,-155.0,-114.0,-137.0,-148.0,-156.0,-22.0,82.0,-45.0,-64.0,-26.0,-6.0,-64.0,61.0,-43.0,-2.0,-50.0,-80.0,-51.0,-64.0,-61.0,-47.0,-64.0,-72.0,-21.0,-27.0,-72.0,-83.0,-15.0,-39.0,-13.0,-96.0,-83.0,-13.0,REST
0.6625,-154.0,-108.0,-100.0,-90.0,-139.0,-171.0,-34.0,-95.0,-70.0,-92.0,-64.0,-88.0,-186.0,-64.0,-77.0,-82.0,-83.0,-81.0,-99.0,-114.0,-95.0,-218.0,-222.0,-271.0,-178.0,-161.0,-143.0,-146.0,-243.0,-161.0,-202.0,-162.0,-117.0,-144.0,-160.0,-166.0,-12.0,79.0,-4.0,-71.0,-26.0,-12.0,-67.0,56.0,-60.0,-23.0,-59.0,-98.0,-72.0,-88.0,-87.0,-76.0,-93.0,-109.0,-60.0,-41.0,-95.0,-111.0,-53.0,-76.0,-37.0,-122.0,-113.0,-34.0,REST
0.6688,-197.0,-139.0,-137.0,-124.0,-173.0,-201.0,-77.0,-126.0,-99.0,-125.0,-92.0,-126.0,-221.0,-101.0,-96.0,-115.0,-117.0,-116.0,-126.0,-146.0,-142.0,-242.0,-252.0,-287.0,-218.0,-193.0,-175.0,-171.0,-261.0,-203.0,-251.0,-185.0,-140.0,-159.0,-174.0,-180.0,-21.0,51.0,-39.0,-107.0,-80.0,-23.0,-95.0,43.0,-84.0,-42.0,-67.0,-107.0,-86.0,-99.0,-99.0,-80.0,-102.0,-124.0,-74.0,-51.0,-110.0,-117.0,-56.0,-84.0,-48.0,-135.0,-120.0,-41.0,REST
0.675,-174.0,-112.0,-118.0,-98.0,-147.0,-155.0,-26.0,-82.0,-71.0,-101.0,-63.0,-87.0,-173.0,-45.0,-76.0,-92.0,-98.0,-91.0,-93.0,-110.0,-109.0,-225.0,-227.0,-252.0,-212.0,-175.0,-145.0,-129.0,-219.0,-202.0,-232.0,-159.0,-114.0,-124.0,-135.0,-143.0,2.0,96.0,-44.0,-55.0,-50.0,32.0,-70.0,64.0,-63.0,-17.0,-48.0,-98.0,-78.0,-84.0,-82.0,-65.0,-87.0,-103.0,-54.0,-39.0,-104.0,-111.0,-41.0,-74.0,-46.0,-128.0,-113.0,-30.0,REST
0.6813,-114.0,-108.0,-115.0,-99.0,-153.0,-182.0,-33.0,-128.0,-86.0,-112.0,-71.0,-107.0,-222.0,-100.0,-98.0,-108.0,-111.0,-107.0,-110.0,-141.0,-121.0,-225.0,-239.0,-277.0,-224.0,-187.0,-164.0,-149.0,-238.0,-195.0,-242.0,-185.0,-142.0,-158.0,-172.0,-175.0,-32.0,87.0,-33.0,-64.0,-35.0,10.0,-78.0,56.0,-89.0,-37.0,-74.0,-126.0,-118.0,-117.0,-114.0,-99.0,-112.0,-127.0,-73.0,-69.0,-129.0,-135.0,-62.0,-88.0,-66.0,-142.0,-122.0,-48.0,REST
0.6875,-181.0,-161.0,-163.0,-148.0,-188.0,-222.0,-53.0,-174.0,-131.0,-151.0,-105.0,-142.0,-238.0,-119.0,-135.0,-141.0,-135.0,-134.0,-129.0,-158.0,-124.0,-248.0,-267.0,-311.0,-240.0,-218.0,-196.0,-180.0,-263.0,-208.0,-273.0,-211.0,-168.0,-185.0,-192.0,-198.0,-51.0,56.0,-42.0,-107.0,-50.0,-32.0,-74.0,48.0,-95.0,-24.0,-68.0,-115.0,-114.0,-109.0,-106.0,-84.0,-95.0,-110.0,-52.0,-60.0,-116.0,-107.0,-37.0,-61.0,-37.0,-122.0,-97.0,-33.0,REST
0.6938,-224.0,-177.0,-164.0,-145.0,-182.0,-206.0,-67.0,-158.0,-138.0,-147.0,-95.0,-128.0,-209.0,-81.0,-117.0,-126.0,-128.0,-117.0,-107.0,-136.0,-102.0,-239.0,-251.0,-305.0,-210.0,-203.0,-188.0,-175.0,-258.0,-178.0,-250.0,-201.0,-154.0,-172.0,-180.0,-188.0,-53.0,78.0,-25.0,-91.0,-31.0,-36.0,-65.0,61.0,-82.0,-9.0,-59.0,-111.0,-104.0,-100.0,-102.0,-79.0,-91.0,-103.0,-48.0,-55.0,-110.0,-104.0,-39.0,-62.0,-37.0,-127.0,-103.0,-39.0,REST
0.7,-194.0,-168.0,-157.0,-147.0,-184.0,-208.0,-89.0,-137.0,-127.0,-144.0,-101.0,-133.0,-221.0,-89.0,-115.0,-127.0,-141.0,-126.0,-120.0,-150.0,-129.0,-254.0,-257.0,-301.0,-227.0,-210.0,-196.0,-187.0,-270.0,-202.0,-249.0,-201.0,-162.0,-177.0,-186.0,-193.0,-76.0,83.0,-44.0,-102.0,-53.0,-51.0,-95.0,28.0,-94.0,-31.0,-76.0,-123.0,-115.0,-109.0,-114.0,-91.0,-105.0,-110.0,-62.0,-71.0,-114.0,-111.0,-54.0,-80.0,-48.0,-133.0,-118.0,-55.0,REST
0.7063,-168.0,-150.0,-142.0,-136.0,-171.0,-181.0,-44.0,-111.0,-107.0,-124.0,-88.0,-117.0,-200.0,-82.0,-102.0,-105.0,-120.0,-107.0,-99.0,-126.0,-96.0,-271.0,-242.0,-271.0,-238.0,-192.0,-171.0,-156.0,-241.0,-197.0,-232.0,-174.0,-135.0,-146.0,-149.0,-157.0,-62.0,122.0,-28.0,-64.0,-29.0,3.0,-54.0,36.0,-64.0,5.0,-40.0,-91.0,-86.0,-75.0,-80.0,-56.0,-76.0,-86.0,-40.0,-35.0,-81.0,-78.0,-27.0,-63.0,-15.0,-97.0,-86.0,-19.0,REST
0.7125,-148.0,-118.0,-105.0,-101.0,-136.0,-154.0,-39.0,-112.0,-90.0,-99.0,-56.0,-93.0,-180.0,-53.0,-91.0,-81.0,-91.0,-83.0,-80.0,-111.0,-101.0,-251.0,-224.0,-248.0,-211.0,-162.0,-148.0,-134.0,-214.0,-162.0,-197.0,-150.0,-111.0,-124.0,-139.0,-147.0,-78.0,127.0,-14.0,-72.0,-9.0,22.0,-41.0,50.0,-57.0,-2.0,-32.0,-90.0,-96.0,-82.0,-88.0,-68.0,-89.0,-108.0,-66.0,-41.0,-95.0,-99.0,-47.0,-74.0,-32.0,-113.0,-100.0,-26.0,REST
0.7188,-131.0,-115.0,-116.0,-114.0,-146.0,-169.0,-62.0,-116.0,-102.0,-117.0,-74.0,-111.0,-191.0,-56.0,-118.0,-105.0,-110.0,-103.0,-94.0,-129.0,-126.0,-254.0,-246.0,-265.0,-203.0,-175.0,-163.0,-155.0,-230.0,-180.0,-208.0,-163.0,-122.0,-136.0,-155.0,-162.0,-97.0,99.0,-58.0,-117.0,-51.0,2.0,-84.0,36.0,-80.0,-19.0,-52.0,-102.0,-108.0,-90.0,-93.0,-73.0,-91.0,-109.0,-66.0,-53.0,-99.0,-101.0,-49.0,-71.0,-38.0,-122.0,-107.0,-31.0,REST
0.725,-74.0,-83.0,-101.0,-105.0,-144.0,-161.0,-37.0,-50.0,-61.0,-97.0,-70.0,-106.0,-187.0,-69.0,-91.0,-73.0,-93.0,-84.0,-72.0,-116.0,-95.0,-249.0,-242.0,-277.0,-198.0,-163.0,-144.0,-156.0,-239.0,-176.0,-181.0,-133.0,-99.0,-124.0,-143.0,-152.0,-100.0,105.0,-57.0,-81.0,-32.0,41.0,-71.0,38.0,-54.0,-2.0,-26.0,-81.0,-76.0,-67.0,-73.0,-58.0,-75.0,-88.0,-44.0,-29.0,-76.0,-73.0,-30.0,-59.0,-16.0,-99.0,-90.0,-9.0,REST
0.7313,-100.0,-107.0,-106.0,-105.0,-152.0,-179.0,-74.0,-64.0,-87.0,-109.0,-80.0,-116.0,-211.0,-97.0,-100.0,-86.0,-103.0,-96.0,-86.0,-133.0,-99.0,-210.0,-213.0,-256.0,-163.0,-150.0,-144.0,-150.0,-227.0,-121.0,-172.0,-155.0,-120.0,-139.0,-157.0,-164.0,-97.0,110.0,20.0,-79.0,3.0,24.0,-51.0,40.0,-72.0,-21.0,-43.0,-103.0,-101.0,-94.0,-100.0,-82.0,-98.0,-111.0,-64.0,-50.0,-105.0,-96.0,-53.0,-79.0,-35.0,-122.0,-109.0,-33.0,REST
0.7375,-195.0,-161.0,-142.0,-121.0,-164.0,-172.0,-47.0,-111.0,-130.0,-134.0,-89.0,-118.0,-194.0,-78.0,-138.0,-118.0,-127.0,-115.0,-105.0,-142.0,-112.0,-195.0,-211.0,-243.0,-157.0,-154.0,-156.0,-141.0,-216.0,-129.0,-193.0,-167.0,-128.0,-138.0,-149.0,-155.0,-75.0,119.0,13.0,-99.0,-22.0,25.0,-53.0,49.0,-84.0,-22.0,-53.0,-106.0,-100.0,-87.0,-92.0,-73.0,-91.0,-108.0,-63.0,-50.0,-107.0,-93.0,-46.0,-76.0,-31.0,-125.0,-108.0,-35.0,REST
0.7438,-145.0,-113.0,-109.0,-99.0,-144.0,-153.0,-29.0,-63.0,-83.0,-99.0,-61.0,-91.0,-171.0,-59.0,-99.0,-81.0,-96.0,-83.0,-80.0,-119.0,-98.0,-215.0,-215.0,-257.0,-174.0,-144.0,-144.0,-136.0,-222.0,-134.0,-172.0,-144.0,-108.0,-123.0,-137.0,-143.0,-66.0,110.0,9.0,-73.0,-19.0,46.0,-41.0,48.0,-67.0,-12.0,-35.0,-89.0,-81.0,-67.0,-76.0,-59.0,-80.0,-97.0,-55.0,-37.0,-91.0,-84.0,-39.0,-72.0,-25.0,-116.0,-101.0,-25.0,REST
0.75,-122.0,-112.0,-106.0,-98.0,-140.0,-156.0,-36.0,-74.0,-86.0,-102.0,-55.0,-91.0,-173.0,-49.0,-90.0,-90.0,-91.0,-81.0,-84.0,-111.0,-100.0,-244.0,-232.0,-263.0,-199.0,-157.0,-145.0,-139.0,-237.0,-155.0,-188.0,-160.0,-117.0,-131.0,-140.0,-148.0,-62.0,88.0,15.0,-110.0,-9.0,24.0,-33.0,27.0,-64.0,-13.0,-36.0,-84.0,-76.0,-66.0,-77.0,-59.0,-78.0,-91.0,-45.0,-33.0,-84.0,-77.0,-32.0,-65.0,-18.0,-110.0,-95.0,-20.0,REST
0.7563,-129.0,-122.0,-114.0,-100.0,-139.0,-159.0,-45.0,-70.0,-92.0,-103.0,-56.0,-100.0,-186.0,-65.0,-80.0,-85.0,-83.0,-77.0,-79.0,-100.0,-92.0,-224.0,-222.0,-233.0,-185.0,-140.0,-133.0,-119.0,-210.0,-145.0,-178.0,-151.0,-103.0,-118.0,-127.0,-133.0,-37.0,112.0,31.0,-105.0,16.0,43.0,-4.0,32.0,-48.0,4.0,-18.0,-67.0,-52.0,-44.0,-53.0,-38.0,-56.0,-70.0,-26.0,-11.0,-61.0,-51.0,-4.0,-40.0,6.0,-89.0,-76.0,7.0,REST
0.7625,-109.0,-101.0,-94.0,-82.0,-124.0,-140.0,-30.0,-52.0,-68.0,-83.0,-45.0,-85.0,-178.0,-67.0,-77.0,-66.0,-65.0,-59.0,-60.0,-89.0,-79.0,-190.0,-203.0,-244.0,-170.0,-125.0,-129.0,-107.0,-202.0,-152.0,-176.0,-140.0,-99.0,-109.0,-122.0,-126.0,-22.0,110.0,5.0,-120.0,-6.0,29.0,-21.0,5.0,-64.0,-13.0,-30.0,-73.0,-67.0,-52.0,-64.0,-44.0,-67.0,-88.0,-62.0,-32.0,-81.0,-68.0,-25.0,-53.0,-17.0,-110.0,-95.0,-15.0,REST
0.7688,-115.0,-108.0,-108.0,-101.0,-130.0,-148.0,-33.0,-53.0,-75.0,-100.0,-58.0,-92.0,-177.0,-70.0,-105.0,-89.0,-81.0,-79.0,-78.0,-103.0,-107.0,-228.0,-230.0,-279.0,-196.0,-156.0,-154.0,-130.0,-232.0,-168.0,-196.0,-154.0,-120.0,-125.0,-138.0,-143.0,-35.0,86.0,-25.0,-124.0,-63.0,-2.0,-69.0,-11.0,-87.0,-32.0,-50.0,-82.0,-82.0,-62.0,-76.0,-50.0,-80.0,-104.0,-74.0,-52.0,-89.0,-77.0,-33.0,-62.0,-26.0,-116.0,-98.0,-27.0,REST
0.775,-86.0,-93.0,-93.0,-95.0,-119.0,-152.0,-25.0,-44.0,-65.0,-90.0,-45.0,-84.0,-182.0,-55.0,-93.0,-74.0,-71.0,-68.0,-57.0,-88.0,-95.0,-234.0,-205.0,-228.0,-181.0,-137.0,-124.0,-95.0,-182.0,-142.0,-173.0,-133.0,-92.0,-99.0,-108.0,-118.0,-8.0,134.0,-5.0,-84.0,-1.0,4.0,-40.0,7.0,-72.0,-14.0,-37.0,-79.0,-72.0,-58.0,-60.0,-36.0,-61.0,-82.0,-45.0,-43.0,-84.0,-72.0,-13.0,-50.0,-22.0,-106.0,-92.0,-14.0,REST
0.7812,-139.0,-120.0,-97.0,-93.0,-123.0,-156.0,-17.0,-100.0,-92.0,-107.0,-50.0,-88.0,-193.0,-74.0,-117.0,-99.0,-96.0,-83.0,-71.0,-100.0,-86.0,-231.0,-204.0,-216.0,-194.0,-146.0,-138.0,-114.0,-198.0,-162.0,-207.0,-167.0,-119.0,-119.0,-139.0,-146.0,-63.0,97.0,-14.0,-115.0,-15.0,-6.0,-49.0,4.0,-110.0,-35.0,-68.0,-124.0,-113.0,-111.0,-103.0,-79.0,-97.0,-109.0,-70.0,-86.0,-135.0,-124.0,-54.0,-86.0,-70.0,-153.0,-136.0,-59.0,REST
0.7875,-210.0,-170.0,-144.0,-129.0,-165.0,-210.0,-59.0,-130.0,-127.0,-144.0,-90.0,-129.0,-247.0,-148.0,-159.0,-142.0,-142.0,-124.0,-116.0,-147.0,-127.0,-223.0,-229.0,-266.0,-196.0,-161.0,-163.0,-158.0,-242.0,-174.0,-212.0,-171.0,-138.0,-138.0,-164.0,-171.0,-109.0,68.0,-48.0,-119.0,-65.0,-7.0,-77.0,3.0,-133.0,-34.0,-72.0,-139.0,-126.0,-122.0,-116.0,-92.0,-109.0,-117.0,-74.0,-96.0,-144.0,-126.0,-59.0,-86.0,-73.0,-158.0,-134.0,-61.0,REST
0.7938,-140.0,-126.0,-114.0,-106.0,-145.0,-197.0,-42.0,-78.0,-90.0,-118.0,-74.0,-106.0,-220.0,-113.0,-128.0,-113.0,-117.0,-100.0,-91.0,-119.0,-119.0,-182.0,-210.0,-264.0,-167.0,-131.0,-142.0,-141.0,-231.0,-151.0,-173.0,-129.0,-106.0,-113.0,-132.0,-140.0,-81.0,98.0,-46.0,-111.0,-62.0,1.0,-77.0,5.0,-119.0,-11.0,-45.0,-120.0,-108.0,-101.0,-91.0,-66.0,-78.0,-85.0,-50.0,-73.0,-117.0,-98.0,-32.0,-61.0,-52.0,-139.0,-116.0,-47.0,REST
0.8,-125.0,-123.0,-102.0,-96.0,-125.0,-175.0,-20.0,-61.0,-93.0,-108.0,-64.0,-86.0,-190.0,-80.0,-114.0,-116.0,-110.0,-92.0,-81.0,-102.0,-101.0,-206.0,-222.0,-275.0,-196.0,-149.0,-155.0,-152.0,-240.0,-172.0,-203.0,-153.0,-119.0,-129.0,-146.0,-153.0,-74.0,102.0,-68.0,-118.0,-59.0,-13.0,-75.0,-15.0,-118.0,-30.0,-48.0,-121.0,-119.0,-107.0,-101.0,-73.0,-86.0,-97.0,-64.0,-78.0,-120.0,-105.0,-42.0,-75.0,-51.0,-144.0,-121.0,-54.0,REST
0.8063,-159.0,-150.0,-119.0,-115.0,-142.0,-204.0,-48.0,-80.0,-113.0,-118.0,-67.0,-105.0,-200.0,-98.0,-120.0,-127.0,-110.0,-95.0,-84.0,-101.0,-99.0,-239.0,-213.0,-252.0,-202.0,-147.0,-149.0,-146.0,-230.0,-135.0,-185.0,-146.0,-111.0,-125.0,-139.0,-147.0,-95.0,94.0,-23.0,-102.0,2.0,17.0,-46.0,-11.0,-89.0,-18.0,-29.0,-104.0,-102.0,-88.0,-81.0,-52.0,-66.0,-81.0,-46.0,-60.0,-102.0,-85.0,-18.0,-61.0,-29.0,-119.0,-101.0,-32.0,REST
0.8125,-147.0,-127.0,-87.0,-82.0,-117.0,-180.0,-17.0,-83.0,-99.0,-101.0,-42.0,-80.0,-169.0,-66.0,-103.0,-110.0,-84.0,-74.0,-62.0,-73.0,-69.0,-196.0,-187.0,-217.0,-161.0,-118.0,-120.0,-112.0,-197.0,-97.0,-149.0,-118.0,-92.0,-102.0,-118.0,-127.0,-93.0,107.0,16.0,-89.0,-6.0,20.0,-55.0,-2.0,-97.0,-15.0,-52.0,-121.0,-115.0,-103.0,-93.0,-65.0,-79.0,-90.0,-52.0,-91.0,-129.0,-111.0,-42.0,-84.0,-56.0,-148.0,-129.0,-60.0,REST
0.8188,-138.0,-126.0,-96.0,-97.0,-130.0,-203.0,-41.0,-73.0,-102.0,-117.0,-60.0,-101.0,-202.0,-95.0,-125.0,-133.0,-110.0,-100.0,-94.0,-107.0,-100.0,-186.0,-218.0,-240.0,-172.0,-140.0,-138.0,-126.0,-209.0,-158.0,-176.0,-122.0,-98.0,-119.0,-134.0,-139.0,-108.0,97.0,-50.0,-111.0,-61.0,-13.0,-98.0,9.0,-104.0,-26.0,-61.0,-129.0,-116.0,-103.0,-96.0,-68.0,-85.0,-97.0,-52.0,-96.0,-128.0,-106.0,-36.0,-79.0,-48.0,-137.0,-120.0,-51.0,REST
0.825,-98.0,-93.0,-67.0,-76.0,-104.0,-175.0,-16.0,-12.0,-62.0,-75.0,-20.0,-68.0,-156.0,-57.0,-91.0,-90.0,-79.0,-59.0,-59.0,-64.0,-71.0,-146.0,-175.0,-211.0,-148.0,-105.0,-92.0,-72.0,-167.0,-137.0,-147.0,-86.0,-49.0,-82.0,-76.0,-84.0,-65.0,147.0,11.0,-79.0,6.0,8.0,-55.0,34.0,-62.0,1.0,-8.0,-84.0,-73.0,-57.0,-46.0,-16.0,-38.0,-59.0,-14.0,-44.0,-81.0,-64.0,9.0,-40.0,-5.0,-90.0,-81.0,-10.0,REST
0.8313,-134.0,-90.0,-49.0,-45.0,-71.0,-133.0,11.0,-41.0,-64.0,-60.0,-1.0,-42.0,-115.0,-30.0,-84.0,-81.0,-61.0,-38.0,-43.0,-46.0,-53.0,-156.0,-153.0,-204.0,-155.0,-104.0,-90.0,-78.0,-172.0,-129.0,-135.0,-99.0,-63.0,-93.0,-88.0,-96.0,-89.0,139.0,10.0,-83.0,1.0,7.0,-69.0,44.0,-91.0,-16.0,-35.0,-93.0,-100.0,-80.0,-69.0,-40.0,-61.0,-75.0,-26.0,-74.0,-109.0,-96.0,-24.0,-67.0,-37.0,-120.0,-119.0,-46.0,REST
0.8375,-158.0,-122.0,-87.0,-86.0,-109.0,-175.0,-60.0,-82.0,-97.0,-99.0,-38.0,-80.0,-162.0,-97.0,-129.0,-121.0,-91.0,-74.0,-80.0,-87.0,-88.0,-174.0,-175.0,-221.0,-168.0,-120.0,-111.0,-108.0,-196.0,-153.0,-148.0,-108.0,-78.0,-99.0,-105.0,-112.0,-101.0,108.0,-29.0,-114.0,-37.0,-11.0,-76.0,56.0,-97.0,-25.0,-40.0,-89.0,-99.0,-76.0,-66.0,-42.0,-69.0,-84.0,-42.0,-68.0,-93.0,-80.0,-18.0,-70.0,-23.0,-107.0,-120.0,-35.0,REST
0.8438,-125.0,-86.0,-37.0,-45.0,-74.0,-136.0,-7.0,-10.0,-48.0,-48.0,9.0,-39.0,-136.0,-44.0,-79.0,-64.0,-49.0,-30.0,-36.0,-59.0,-67.0,-113.0,-131.0,-170.0,-97.0,-53.0,-50.0,-48.0,-137.0,-81.0,-97.0,-39.0,-9.0,-35.0,-39.0,-50.0,-31.0,147.0,30.0,-97.0,4.0,-19.0,-39.0,66.0,-48.0,-9.0,5.0,-56.0,-59.0,-37.0,-34.0,-18.0,-55.0,-79.0,-45.0,-35.0,-59.0,-63.0,-11.0,-70.0,-2.0,-93.0,-108.0,-20.0,REST
0.85,-75.0,-37.0,-1.0,-16.0,-56.0,-122.0,5.0,4.0,-20.0,-28.0,24.0,-39.0,-148.0,-34.0,-73.0,-50.0,-45.0,-33.0,-52.0,-82.0,-103.0,-122.0,-157.0,-181.0,-101.0,-60.0,-64.0,-74.0,-161.0,-83.0,-101.0,-50.0,-22.0,-60.0,-73.0,-81.0,-74.0,96.0,19.0,-100.0,48.0,-3.0,-45.0,60.0,-55.0,-46.0,-4.0,-74.0,-80.0,-66.0,-64.0,-56.0,-88.0,-109.0,-73.0,-51.0,-77.0,-99.0,-46.0,-93.0,-20.0,-119.0,-125.0,-36.0,REST
0.8562,-91.0,-65.0,-35.0,-49.0,-94.0,-173.0,-59.0,-72.0,-54.0,-58.0,-10.0,-79.0,-174.0,-98.0,-93.0,-72.0,-65.0,-54.0,-73.0,-95.0,-102.0,-138.0,-170.0,-193.0,-113.0,-80.0,-81.0,-84.0,-157.0,-99.0,-111.0,-64.0,-33.0,-73.0,-79.0,-89.0,-81.0,89.0,43.0,-106.0,68.0,8.0,-27.0,50.0,-44.0,-34.0,11.0,-58.0,-56.0,-53.0,-51.0,-42.0,-74.0,-90.0,-48.0,-30.0,-61.0,-75.0,-25.0,-76.0,-5.0,-102.0,-112.0,-18.0,REST
0.8625,-60.0,-49.0,-20.0,-37.0,-83.0,-163.0,-31.0,-55.0,-33.0,-42.0,2.0,-64.0,-163.0,-87.0,-69.0,-44.0,-42.0,-37.0,-57.0,-82.0,-90.0,-148.0,-158.0,-206.0,-122.0,-84.0,-81.0,-83.0,-170.0,-93.0,-97.0,-58.0,-25.0,-75.0,-79.0,-89.0,-95.0,94.0,40.0,-86.0,31.0,20.0,-46.0,51.0,-52.0,-18.0,1.0,-58.0,-48.0,-52.0,-47.0,-37.0,-72.0,-93.0,-42.0,-36.0,-73.0,-73.0,-25.0,-76.0,-16.0,-106.0,-115.0,-25.0,REST
0.8688,-45.0,-38.0,-19.0,-35.0,-83.0,-172.0,-45.0,-37.0,-20.0,-42.0,3.0,-61.0,-177.0,-82.0,-76.0,-51.0,-44.0,-41.0,-56.0,-86.0,-90.0,-161.0,-165.0,-233.0,-133.0,-95.0,-87.0,-101.0,-199.0,-84.0,-115.0,-69.0,-31.0,-79.0,-83.0,-90.0,-116.0,99.0,-5.0,-64.0,11.0,14.0,-47.0,51.0,-58.0,-20.0,-2.0,-71.0,-56.0,-59.0,-48.0,-33.0,-66.0,-90.0,-39.0,-46.0,-86.0,-79.0,-22.0,-73.0,-21.0,-107.0,-114.0,-25.0,REST
0.875,-125.0,-72.0,-30.0,-32.0,-77.0,-159.0,-40.0,-67.0,-41.0,-52.0,8.0,-51.0,-156.0,-53.0,-85.0,-70.0,-49.0,-39.0,-43.0,-70.0,-74.0,-152.0,-157.0,-212.0,-133.0,-100.0,-76.0,-84.0,-176.0,-94.0,-133.0,-71.0,-34.0,-74.0,-70.0,-77.0,-109.0,111.0,22.0,-71.0,45.0,-8.0,-22.0,40.0,-45.0,-26.0,18.0,-72.0,-61.0,-58.0,-46.0,-29.0,-55.0,-77.0,-27.0,-43.0,-87.0,-79.0,-14.0,-69.0,-21.0,-102.0,-116.0,-20.0,REST
0.8813,-144.0,-92.0,-36.0,-38.0,-78.0,-149.0,-29.0,-71.0,-54.0,-58.0,5.0,-56.0,-138.0,-40.0,-81.0,-77.0,-60.0,-45.0,-46.0,-79.0,-78.0,-159.0,-174.0,-195.0,-134.0,-101.0,-90.0,-81.0,-167.0,-90.0,-112.0,-72.0,-44.0,-86.0,-79.0,-85.0,-103.0,90.0,20.0,-90.0,30.0,-8.0,-19.0,29.0,-51.0,-41.0,7.0,-79.0,-80.0,-77.0,-65.0,-46.0,-75.0,-96.0,-58.0,-63.0,-106.0,-91.0,-27.0,-83.0,-35.0,-115.0,-124.0,-40.0,REST
0.8875,-98.0,-76.0,-44.0,-59.0,-91.0,-169.0,-13.0,-35.0,-43.0,-63.0,-18.0,-81.0,-157.0,-70.0,-74.0,-70.0,-70.0,-56.0,-64.0,-97.0,-93.0,-173.0,-190.0,-241.0,-137.0,-99.0,-108.0,-108.0,-204.0,-88.0,-93.0,-65.0,-45.0,-97.0,-91.0,-97.0,-119.0,73.0,10.0,-62.0,30.0,25.0,-27.0,41.0,-35.0,-35.0,16.0,-63.0,-65.0,-70.0,-53.0,-34.0,-64.0,-84.0,-47.0,-49.0,-90.0,-72.0,-5.0,-60.0,-20.0,-94.0,-98.0,-23.0,REST
0.8938,-69.0,-47.0,-25.0,-51.0,-83.0,-172.0,-1.0,-21.0,-22.0,-40.0,-10.0,-65.0,-154.0,-63.0,-49.0,-39.0,-44.0,-32.0,-45.0,-65.0,-68.0,-152.0,-159.0,-237.0,-99.0,-65.0,-83.0,-95.0,-200.0,-42.0,-61.0,-45.0,-27.0,-76.0,-69.0,-76.0,-115.0,85.0,65.0,-42.0,67.0,43.0,-1.0,53.0,-20.0,-13.0,34.0,-47.0,-44.0,-53.0,-40.0,-18.0,-45.0,-64.0,-23.0,-31.0,-76.0,-62.0,8.0,-43.0,-11.0,-81.0,-86.0,-13.0,REST
0.9,-93.0,-50.0,-23.0,-48.0,-78.0,-155.0,-14.0,-2.0,-25.0,-40.0,-1.0,-59.0,-151.0,-51.0,-46.0,-46.0,-44.0,-40.0,-57.0,-70.0,-76.0,-182.0,-167.0,-219.0,-125.0,-86.0,-93.0,-105.0,-193.0,-63.0,-88.0,-69.0,-49.0,-95.0,-90.0,-97.0,-135.0,61.0,32.0,-90.0,43.0,8.0,-14.0,41.0,-42.0,-30.0,13.0,-66.0,-64.0,-72.0,-68.0,-46.0,-73.0,-89.0,-48.0,-50.0,-97.0,-89.0,-25.0,-72.0,-26.0,-101.0,-112.0,-34.0,REST
0.9062,-121.0,-80.0,-52.0,-69.0,-100.0,-171.0,-37.0,-42.0,-50.0,-61.0,-14.0,-77.0,-156.0,-57.0,-56.0,-67.0,-57.0,-57.0,-79.0,-86.0,-91.0,-206.0,-192.0,-217.0,-153.0,-106.0,-102.0,-108.0,-182.0,-87.0,-111.0,-81.0,-60.0,-102.0,-90.0,-98.0,-117.0,76.0,56.0,-68.0,82.0,12.0,16.0,54.0,-26.0,-18.0,29.0,-52.0,-48.0,-55.0,-48.0,-30.0,-58.0,-74.0,-33.0,-26.0,-73.0,-63.0,-2.0,-55.0,-2.0,-79.0,-90.0,-12.0,REST
0.9125,-106.0,-78.0,-32.0,-46.0,-86.0,-156.0,-7.0,-61.0,-33.0,-36.0,7.0,-55.0,-127.0,-22.0,-39.0,-47.0,-31.0,-27.0,-47.0,-69.0,-70.0,-171.0,-169.0,-188.0,-123.0,-82.0,-83.0,-86.0,-158.0,-66.0,-87.0,-59.0,-40.0,-79.0,-71.0,-79.0,-91.0,86.0,84.0,-51.0,103.0,18.0,40.0,73.0,-6.0,-4.0,48.0,-29.0,-30.0,-41.0,-29.0,-12.0,-44.0,-58.0,-13.0,-11.0,-56.0,-56.0,12.0,-44.0,7.0,-74.0,-81.0,-4.0,REST
0.9187,-64.0,-60.0,-21.0,-36.0,-80.0,-145.0,4.0,-27.0,-16.0,-26.0,14.0,-49.0,-119.0,-20.0,-36.0,-43.0,-25.0,-20.0,-34.0,-77.0,-65.0,-142.0,-169.0,-211.0,-105.0,-75.0,-85.0,-96.0,-182.0,-29.0,-58.0,-54.0,-33.0,-74.0,-77.0,-82.0,-117.0,65.0,90.0,-71.0,86.0,22.0,32.0,74.0,-6.0,-7.0,52.0,-20.0,-23.0,-31.0,-22.0,-7.0,-41.0,-58.0,-20.0,-4.0,-50.0,-55.0,10.0,-43.0,13.0,-69.0,-79.0,2.0,REST
0.925,8.0,-7.0,6.0,-18.0,-66.0,-121.0,41.0,35.0,31.0,11.0,36.0,-24.0,-82.0,22.0,4.0,-1.0,4.0,9.0,-10.0,-51.0,-37.0,-125.0,-145.0,-216.0,-90.0,-56.0,-59.0,-82.0,-176.0,-27.0,-35.0,-18.0,-1.0,-49.0,-45.0,-53.0,-120.0,74.0,72.0,-53.0,107.0,13.0,32.0,72.0,14.0,-10.0,76.0,7.0,8.0,3.0,7.0,21.0,-12.0,-40.0,-17.0,18.0,-27.0,-27.0,27.0,-32.0,38.0,-42.0,-62.0,17.0,REST
0.9313,17.0,6.0,18.0,-7.0,-54.0,-105.0,36.0,23.0,36.0,23.0,51.0,-11.0,-71.0,27.0,6.0,1.0,11.0,8.0,-23.0,-53.0,-37.0,-153.0,-156.0,-218.0,-125.0,-86.0,-77.0,-107.0,-197.0,-73.0,-99.0,-65.0,-34.0,-77.0,-81.0,-87.0,-169.0,43.0,71.0,-75.0,107.0,32.0,26.0,77.0,-4.0,-25.0,63.0,-7.0,-11.0,-25.0,-28.0,-24.0,-60.0,-83.0,-45.0,-2.0,-48.0,-55.0,-9.0,-63.0,21.0,-64.0,-86.0,-10.0,REST
0.9375,-125.0,-75.0,-38.0,-62.0,-111.0,-209.0,-61.0,-44.0,-24.0,-27.0,6.0,-79.0,-199.0,-116.0,-37.0,-33.0,-17.0,-34.0,-76.0,-126.0,-110.0,-152.0,-175.0,-228.0,-118.0,-95.0,-91.0,-131.0,-213.0,-50.0,-115.0,-83.0,-46.0,-91.0,-102.0,-108.0,-188.0,23.0,89.0,-70.0,98.0,57.0,25.0,89.0,-4.0,-23.0,67.0,-1.0,-2.0,-18.0,-26.0,-25.0,-68.0,-85.0,-35.0,13.0,-32.0,-41.0,5.0,-49.0,35.0,-50.0,-73.0,11.0,REST
0.9438,-73.0,-39.0,-7.0,-41.0,-92.0,-202.0,-37.0,15.0,18.0,6.0,32.0,-58.0,-169.0,-77.0,1.0,11.0,14.0,1.0,-34.0,-86.0,-73.0,-128.0,-149.0,-195.0,-84.0,-56.0,-53.0,-103.0,-172.0,-16.0,-73.0,-42.0,-5.0,-54.0,-61.0,-70.0,-156.0,44.0,91.0,-60.0,96.0,20.0,36.0,107.0,17.0,-1.0,77.0,27.0,18.0,8.0,4.0,10.0,-32.0,-45.0,3.0,28.0,-16.0,-23.0,30.0,-25.0,41.0,-41.0,-64.0,21.0,REST
0.95,-29.0,-15.0,10.0,-19.0,-72.0,-163.0,-18.0,35.0,32.0,19.0,48.0,-37.0,-120.0,-20.0,8.0,7.0,14.0,8.0,-25.0,-55.0,-39.0,-133.0,-158.0,-203.0,-97.0,-61.0,-63.0,-110.0,-176.0,-26.0,-73.0,-50.0,-17.0,-58.0,-67.0,-72.0,-162.0,29.0,111.0,-74.0,119.0,4.0,40.0,100.0,17.0,-6.0,60.0,26.0,-4.0,-1.0,-2.0,5.0,-29.0,-45.0,-6.0,18.0,-28.0,-34.0,20.0,-31.0,32.0,-49.0,-74.0,8.0,REST
0.9563,-48.0,-38.0,-5.0,-25.0,-74.0,-148.0,-24.0,-29.0,7.0,1.0,43.0,-36.0,-115.0,-26.0,-9.0,-11.0,1.0,1.0,-26.0,-55.0,-59.0,-131.0,-153.0,-220.0,-118.0,-74.0,-71.0,-107.0,-175.0,-52.0,-95.0,-59.0,-25.0,-58.0,-61.0,-67.0,-162.0,24.0,117.0,-73.0,139.0,44.0,53.0,93.0,17.0,-5.0,55.0,11.0,-23.0,-7.0,-6.0,3.0,-31.0,-54.0,-21.0,17.0,-39.0,-39.0,15.0,-40.0,24.0,-58.0,-86.0,5.0,REST
0.9625,-72.0,-53.0,-14.0,-32.0,-73.0,-140.0,0.0,-62.0,-16.0,-18.0,29.0,-34.0,-114.0,-34.0,-32.0,-27.0,-16.0,-12.0,-30.0,-60.0,-72.0,-134.0,-150.0,-244.0,-127.0,-90.0,-81.0,-121.0,-197.0,-49.0,-99.0,-79.0,-37.0,-72.0,-75.0,-82.0,-165.0,6.0,99.0,-103.0,99.0,18.0,6.0,81.0,-21.0,-26.0,27.0,-24.0,-51.0,-34.0,-32.0,-16.0,-51.0,-72.0,-37.0,-13.0,-68.0,-59.0,-4.0,-61.0,-9.0,-89.0,-113.0,-26.0,REST
0.9688,-43.0,-46.0,-31.0,-58.0,-95.0,-168.0,-35.0,-39.0,-22.0,-34.0,4.0,-50.0,-123.0,-39.0,-41.0,-43.0,-30.0,-30.0,-42.0,-69.0,-74.0,-171.0,-181.0,-260.0,-148.0,-115.0,-94.0,-140.0,-220.0,-71.0,-109.0,-93.0,-48.0,-90.0,-97.0,-102.0,-182.0,-19.0,56.0,-98.0,73.0,-5.0,-11.0,68.0,-24.0,-28.0,34.0,-15.0,-38.0,-28.0,-25.0,-8.0,-41.0,-62.0,-28.0,0.0,-55.0,-43.0,9.0,-49.0,14.0,-68.0,-90.0,-8.0,REST
0.975,-73.0,-56.0,-32.0,-57.0,-101.0,-180.0,-58.0,-39.0,-24.0,-26.0,10.0,-49.0,-117.0,-34.0,-18.0,-27.0,-10.0,-12.0,-22.0,-52.0,-52.0,-149.0,-153.0,-227.0,-122.0,-97.0,-67.0,-114.0,-182.0,-61.0,-107.0,-78.0,-31.0,-77.0,-80.0,-86.0,-177.0,23.0,51.0,-45.0,82.0,13.0,26.0,68.0,5.0,-13.0,71.0,8.0,-8.0,-6.0,-1.0,17.0,-15.0,-28.0,-1.0,36.0,-26.0,-22.0,31.0,-29.0,43.0,-35.0,-59.0,20.0,REST
0.9812,-40.0,-38.0,-17.0,-53.0,-99.0,-199.0,-54.0,-13.0,-3.0,-20.0,9.0,-51.0,-114.0,-41.0,-7.0,-17.0,-4.0,-11.0,-24.0,-46.0,-51.0,-127.0,-146.0,-224.0,-106.0,-83.0,-65.0,-125.0,-193.0,-59.0,-98.0,-70.0,-33.0,-87.0,-99.0,-105.0,-182.0,9.0,30.0,-79.0,65.0,-2.0,-1.0,43.0,-4.0,-26.0,64.0,1.0,-22.0,-25.0,-25.0,-7.0,-43.0,-54.0,-16.0,18.0,-45.0,-44.0,5.0,-54.0,18.0,-56.0,-79.0,-6.0,REST
0.9875,-33.0,-48.0,-43.0,-77.0,-122.0,-221.0,-48.0,-22.0,-22.0,-49.0,-15.0,-65.0,-120.0,-46.0,-32.0,-46.0,-28.0,-36.0,-48.0,-73.0,-96.0,-146.0,-181.0,-244.0,-150.0,-109.0,-93.0,-148.0,-205.0,-85.0,-129.0,-92.0,-58.0,-103.0,-112.0,-119.0,-177.0,-23.0,70.0,-120.0,54.0,15.0,-6.0,52.0,-10.0,-30.0,60.0,2.0,-27.0,-28.0,-30.0,-12.0,-53.0,-71.0,-41.0,8.0,-46.0,-45.0,5.0,-53.0,13.0,-60.0,-81.0,-1.0,REST
0.9938,-125.0,-76.0,-55.0,-71.0,-118.0,-213.0,-40.0,-58.0,-45.0,-56.0,-14.0,-62.0,-126.0,-73.0,-45.0,-52.0,-28.0,-31.0,-43.0,-74.0,-85.0,-133.0,-157.0,-240.0,-140.0,-109.0,-93.0,-135.0,-180.0,-74.0,-138.0,-96.0,-62.0,-100.0,-101.0,-108.0,-163.0,-4.0,84.0,-82.0,88.0,45.0,29.0,86.0,-10.0,-23.0,54.0,-9.0,-33.0,-34.0,-31.0,-16.0,-56.0,-67.0,-38.0,3.0,-44.0,-47.0,4.0,-47.0,9.0,-66.0,-84.0,0.0,REST
1.0,-113.0,-89.0,-68.0,-80.0,-128.0,-237.0,-50.0,-93.0,-56.0,-62.0,-31.0,-87.0,-172.0,-105.0,-63.0,-61.0,-32.0,-45.0,-63.0,-97.0,-99.0,-172.0,-168.0,-260.0,-149.0,-129.0,-116.0,-157.0,-203.0,-87.0,-144.0,-111.0,-82.0,-123.0,-131.0,-135.0,-197.0,-26.0,66.0,-84.0,89.0,20.0,7.0,77.0,-13.0,-44.0,40.0,-18.0,-39.0,-44.0,-44.0,-32.0,-71.0,-81.0,-48.0,-4.0,-48.0,-57.0,-11.0,-62.0,9.0,-76.0,-96.0,-7.0,REST
1.0063,-71.0,-75.0,-68.0,-89.0,-135.0,-245.0,-62.0,-84.0,-35.0,-50.0,-33.0,-77.0,-148.0,-71.0,-42.0,-45.0,-19.0,-33.0,-53.0,-78.0,-85.0,-180.0,-173.0,-247.0,-140.0,-128.0,-107.0,-155.0,-205.0,-96.0,-130.0,-102.0,-68.0,-108.0,-115.0,-121.0,-194.0,-24.0,79.0,-98.0,114.0,15.0,12.0,68.0,12.0,-24.0,60.0,4.0,-5.0,-13.0,-10.0,3.0,-38.0,-51.0,-23.0,20.0,-22.0,-30.0,20.0,-37.0,29.0,-48.0,-71.0,15.0,REST
1.0125,-43.0,-45.0,-37.0,-63.0,-98.0,-200.0,-32.0,-64.0,-12.0,-25.0,2.0,-38.0,-94.0,-32.0,-26.0,-23.0,-2.0,-7.0,-30.0,-57.0,-71.0,-161.0,-172.0,-247.0,-125.0,-118.0,-100.0,-150.0,-200.0,-66.0,-118.0,-102.0,-64.0,-102.0,-114.0,-119.0,-201.0,-25.0,87.0,-106.0,90.0,45.0,-7.0,70.0,-1.0,-15.0,50.0,-6.0,-13.0,-24.0,-20.0,-11.0,-48.0,-52.0,-21.0,-4.0,-39.0,-51.0,10.0,-42.0,0.0,-68.0,-80.0,-8.0,REST
1.0188,-67.0,-69.0,-65.0,-97.0,-120.0,-225.0,-80.0,-77.0,-34.0,-50.0,-15.0,-74.0,-143.0,-82.0,-60.0,-52.0,-30.0,-39.0,-62.0,-92.0,-88.0,-178.0,-203.0,-281.0,-147.0,-147.0,-130.0,-180.0,-222.0,-83.0,-148.0,-125.0,-97.0,-130.0,-144.0,-146.0,-201.0,-37.0,18.0,-102.0,27.0,49.0,-41.0,68.0,-29.0,-22.0,29.0,-26.0,-32.0,-40.0,-35.0,-22.0,-56.0,-56.0,-26.0,-16.0,-40.0,-52.0,9.0,-45.0,2.0,-70.0,-77.0,-11.0,REST
1.025,-82.0,-81.0,-73.0,-99.0,-124.0,-223.0,-87.0,-55.0,-40.0,-52.0,-12.0,-69.0,-133.0,-68.0,-44.0,-40.0,-16.0,-30.0,-49.0,-74.0,-67.0,-192.0,-185.0,-265.0,-153.0,-143.0,-119.0,-171.0,-215.0,-101.0,-156.0,-121.0,-87.0,-118.0,-119.0,-125.0,-164.0,-18.0,29.0,-87.0,63.0,54.0,-18.0,79.0,-5.0,-7.0,54.0,-11.0,-16.0,-22.0,-11.0,9.0,-32.0,-34.0,-18.0,13.0,-11.0,-24.0,34.0,-30.0,39.0,-40.0,-60.0,21.0,REST
1.0312,-124.0,-86.0,-61.0,-67.0,-99.0,-183.0,-35.0,-98.0,-46.0,-46.0,-2.0,-39.0,-78.0,5.0,-41.0,-45.0,-13.0,-17.0,-32.0,-53.0,-56.0,-204.0,-172.0,-253.0,-156.0,-138.0,-115.0,-170.0,-217.0,-108.0,-155.0,-123.0,-81.0,-117.0,-120.0,-124.0,-174.0,-25.0,14.0,-96.0,54.0,40.0,-42.0,55.0,-8.0,-20.0,43.0,-12.0,-23.0,-33.0,-24.0,-1.0,-44.0,-49.0,-32.0,0.0,-26.0,-37.0,17.0,-46.0,25.0,-54.0,-74.0,6.0,REST
1.0375,-80.0,-76.0,-72.0,-85.0,-124.0,-210.0,-84.0,-80.0,-39.0,-61.0,-30.0,-72.0,-115.0,-44.0,-58.0,-68.0,-35.0,-41.0,-59.0,-83.0,-80.0,-209.0,-195.0,-278.0,-152.0,-148.0,-134.0,-200.0,-249.0,-106.0,-155.0,-133.0,-96.0,-133.0,-143.0,-146.0,-225.0,-67.0,14.0,-115.0,55.0,49.0,-46.0,51.0,-16.0,-20.0,32.0,-22.0,-30.0,-34.0,-29.0,-4.0,-45.0,-48.0,-24.0,-2.0,-30.0,-34.0,26.0,-36.0,17.0,-51.0,-66.0,11.0,REST
1.0437,-133.0,-96.0,-79.0,-89.0,-127.0,-220.0,-111.0,-106.0,-48.0,-64.0,-26.0,-67.0,-120.0,-73.0,-64.0,-67.0,-30.0,-32.0,-50.0,-74.0,-68.0,-197.0,-195.0,-257.0,-140.0,-145.0,-124.0,-179.0,-221.0,-109.0,-165.0,-134.0,-92.0,-121.0,-125.0,-130.0,-198.0,-42.0,46.0,-91.0,72.0,57.0,-26.0,69.0,-27.0,-11.0,24.0,-35.0,-35.0,-33.0,-20.0,-1.0,-41.0,-44.0,-20.0,-6.0,-36.0,-36.0,26.0,-33.0,3.0,-59.0,-71.0,2.0,REST
1.05,-114.0,-83.0,-67.0,-81.0,-115.0,-204.0,-96.0,-82.0,-32.0,-51.0,-4.0,-49.0,-102.0,-63.0,-63.0,-53.0,-25.0,-25.0,-37.0,-63.0,-67.0,-204.0,-188.0,-248.0,-139.0,-137.0,-111.0,-164.0,-207.0,-116.0,-145.0,-114.0,-76.0,-102.0,-105.0,-110.0,-171.0,-21.0,40.0,-84.0,57.0,34.0,-41.0,48.0,-26.0,-21.0,20.0,-22.0,-29.0,-23.0,-6.0,16.0,-26.0,-33.0,-22.0,-3.0,-27.0,-27.0,35.0,-26.0,12.0,-52.0,-61.0,10.0,REST
1.0563,-33.0,-30.0,-25.0,-45.0,-75.0,-144.0,-38.0,-20.0,20.0,-4.0,44.0,-2.0,-44.0,-14.0,-18.0,-8.0,14.0,16.0,13.0,-18.0,-36.0,-153.0,-145.0,-226.0,-95.0,-82.0,-61.0,-125.0,-164.0,-63.0,-98.0,-70.0,-25.0,-53.0,-58.0,-65.0,-130.0,25.0,64.0,-63.0,93.0,66.0,4.0,54.0,6.0,4.0,58.0,15.0,18.0,19.0,33.0,63.0,16.0,7.0,2.0,26.0,4.0,8.0,72.0,3.0,44.0,-20.0,-36.0,41.0,REST
1.0625,-27.0,-16.0,1.0,-16.0,-51.0,-127.0,-18.0,-27.0,27.0,15.0,60.0,22.0,-27.0,-4.0,-2.0,7.0,31.0,36.0,30.0,3.0,-12.0,-126.0,-124.0,-214.0,-100.0,-76.0,-59.0,-125.0,-158.0,-74.0,-126.0,-91.0,-36.0,-57.0,-68.0,-72.0,-143.0,22.0,61.0,-69.0,97.0,78.0,2.0,53.0,-14.0,3.0,33.0,-3.0,-1.0,1.0,14.0,41.0,3.0,-3.0,1.0,-8.0,-27.0,-21.0,48.0,-17.0,11.0,-48.0,-64.0,3.0,REST
1.0688,-112.0,-76.0,-53.0,-53.0,-89.0,-173.0,-78.0,-80.0,-31.0,-41.0,11.0,-24.0,-72.0,-62.0,-49.0,-43.0,-15.0,-12.0,-21.0,-44.0,-55.0,-175.0,-161.0,-232.0,-138.0,-118.0,-96.0,-164.0,-204.0,-114.0,-162.0,-122.0,-77.0,-97.0,-112.0,-115.0,-158.0,-26.0,49.0,-82.0,61.0,82.0,-36.0,65.0,-39.0,-11.0,12.0,-18.0,-34.0,-27.0,-22.0,-7.0,-41.0,-45.0,-29.0,-22.0,-45.0,-48.0,14.0,-45.0,-5.0,-68.0,-87.0,-8.0,REST
1.075,-112.0,-77.0,-63.0,-63.0,-108.0,-189.0,-91.0,-63.0,-32.0,-51.0,-5.0,-48.0,-106.0,-78.0,-46.0,-42.0,-19.0,-19.0,-32.0,-66.0,-79.0,-162.0,-136.0,-195.0,-102.0,-96.0,-72.0,-133.0,-176.0,-81.0,-127.0,-84.0,-43.0,-73.0,-83.0,-89.0,-112.0,4.0,77.0,-37.0,84.0,114.0,-21.0,108.0,-18.0,4.0,37.0,-4.0,-14.0,-11.0,-7.0,5.0,-32.0,-33.0,-17.0,10.0,-25.0,-26.0,27.0,-32.0,19.0,-47.0,-73.0,20.0,REST
1.0813,-59.0,-37.0,-29.0,-35.0,-82.0,-156.0,-74.0,-52.0,-11.0,-27.0,12.0,-28.0,-86.0,-50.0,-35.0,-31.0,-5.0,-7.0,-22.0,-63.0,-65.0,-148.0,-131.0,-194.0,-85.0,-84.0,-74.0,-130.0,-167.0,-52.0,-111.0,-80.0,-39.0,-72.0,-82.0,-87.0,-115.0,-3.0,76.0,-61.0,80.0,93.0,-38.0,96.0,-27.0,-15.0,22.0,-20.0,-22.0,-22.0,-17.0,-5.0,-42.0,-42.0,-27.0,-4.0,-36.0,-34.0,14.0,-40.0,7.0,-55.0,-81.0,-1.0,REST
1.0875,-50.0,-46.0,-48.0,-56.0,-91.0,-156.0,-73.0,-60.0,-22.0,-40.0,5.0,-37.0,-93.0,-43.0,-51.0,-45.0,-16.0,-22.0,-33.0,-74.0,-74.0,-157.0,-162.0,-239.0,-115.0,-110.0,-99.0,-153.0,-184.0,-118.0,-150.0,-106.0,-62.0,-95.0,-95.0,-99.0,-126.0,-25.0,19.0,-89.0,56.0,61.0,-52.0,76.0,-31.0,-25.0,15.0,-16.0,-20.0,-16.0,-7.0,11.0,-23.0,-29.0,-21.0,4.0,-26.0,-22.0,39.0,-17.0,25.0,-38.0,-55.0,21.0,REST
1.0938,-86.0,-62.0,-49.0,-55.0,-79.0,-136.0,-55.0,-65.0,-33.0,-39.0,13.0,-15.0,-57.0,29.0,-51.0,-37.0,-6.0,-8.0,-6.0,-37.0,-37.0,-153.0,-149.0,-227.0,-121.0,-116.0,-94.0,-140.0,-175.0,-130.0,-173.0,-120.0,-67.0,-99.0,-86.0,-90.0,-105.0,-27.0,43.0,-86.0,51.0,78.0,-31.0,67.0,-37.0,-5.0,10.0,-28.0,-32.0,-26.0,-16.0,6.0,-24.0,-31.0,-18.0,2.0,-36.0,-40.0,29.0,-27.0,15.0,-58.0,-69.0,13.0,REST
1.1,-162.0,-105.0,-78.0,-77.0,-101.0,-164.0,-70.0,-101.0,-69.0,-74.0,-23.0,-49.0,-107.0,-33.0,-82.0,-75.0,-39.0,-46.0,-48.0,-83.0,-88.0,-193.0,-177.0,-247.0,-145.0,-144.0,-124.0,-172.0,-208.0,-125.0,-182.0,-138.0,-96.0,-131.0,-126.0,-130.0,-122.0,-56.0,22.0,-69.0,31.0,107.0,-59.0,68.0,-59.0,-22.0,-15.0,-57.0,-64.0,-65.0,-61.0,-50.0,-77.0,-81.0,-45.0,-31.0,-66.0,-81.0,-17.0,-67.0,-19.0,-93.0,-108.0,-16.0,REST
1.1062,-116.0,-102.0,-89.0,-97.0,-131.0,-219.0,-140.0,-114.0,-68.0,-85.0,-44.0,-78.0,-149.0,-106.0,-80.0,-84.0,-50.0,-59.0,-68.0,-103.0,-112.0,-177.0,-162.0,-230.0,-153.0,-143.0,-113.0,-168.0,-182.0,-125.0,-167.0,-126.0,-85.0,-121.0,-115.0,-121.0,-118.0,-42.0,44.0,-66.0,41.0,105.0,-51.0,95.0,-39.0,-9.0,2.0,-45.0,-51.0,-46.0,-41.0,-29.0,-58.0,-56.0,-17.0,-20.0,-51.0,-51.0,11.0,-46.0,-1.0,-66.0,-82.0,6.0,REST
1.1125,-99.0,-81.0,-69.0,-78.0,-109.0,-187.0,-121.0,-89.0,-52.0,-72.0,-30.0,-55.0,-108.0,-74.0,-56.0,-61.0,-31.0,-41.0,-46.0,-82.0,-77.0,-170.0,-149.0,-214.0,-155.0,-147.0,-107.0,-162.0,-174.0,-140.0,-186.0,-137.0,-90.0,-123.0,-109.0,-115.0,-123.0,-56.0,33.0,-93.0,15.0,69.0,-66.0,77.0,-41.0,-19.0,-7.0,-51.0,-59.0,-46.0,-43.0,-29.0,-56.0,-56.0,-40.0,-25.0,-62.0,-54.0,7.0,-52.0,-4.0,-68.0,-79.0,2.0,REST
1.1188,-133.0,-101.0,-88.0,-90.0,-113.0,-171.0,-102.0,-118.0,-72.0,-87.0,-29.0,-64.0,-103.0,-72.0,-84.0,-76.0,-40.0,-49.0,-55.0,-92.0,-80.0,-167.0,-185.0,-252.0,-148.0,-149.0,-117.0,-175.0,-203.0,-115.0,-166.0,-128.0,-96.0,-128.0,-115.0,-120.0,-120.0,-58.0,60.0,-101.0,73.0,55.0,-50.0,61.0,-28.0,-33.0,6.0,-35.0,-46.0,-31.0,-26.0,-10.0,-42.0,-43.0,-40.0,-4.0,-41.0,-36.0,28.0,-37.0,23.0,-44.0,-54.0,21.0,REST
1.125,-78.0,-67.0,-54.0,-58.0,-86.0,-136.0,-80.0,-108.0,-31.0,-48.0,16.0,-27.0,-65.0,-32.0,-57.0,-31.0,3.0,-7.0,-16.0,-50.0,-42.0,-133.0,-150.0,-225.0,-112.0,-103.0,-76.0,-142.0,-171.0,-69.0,-111.0,-84.0,-52.0,-86.0,-73.0,-79.0,-72.0,-4.0,76.0,-88.0,102.0,70.0,-17.0,65.0,-6.0,-5.0,33.0,4.0,-10.0,4.0,10.0,28.0,-10.0,-19.0,-12.0,26.0,-13.0,-11.0,49.0,-24.0,45.0,-31.0,-41.0,37.0,REST
1.1313,-84.0,-52.0,-44.0,-42.0,-71.0,-98.0,-54.0,-106.0,-27.0,-45.0,16.0,-14.0,-40.0,2.0,-61.0,-37.0,-5.0,-14.0,-20.0,-53.0,-67.0,-150.0,-139.0,-211.0,-134.0,-131.0,-93.0,-164.0,-183.0,-122.0,-167.0,-142.0,-92.0,-115.0,-108.0,-112.0,-114.0,-33.0,32.0,-114.0,47.0,67.0,-46.0,56.0,-55.0,-19.0,-23.0,-36.0,-58.0,-37.0,-36.0,-15.0,-53.0,-61.0,-43.0,-21.0,-61.0,-58.0,3.0,-62.0,-3.0,-76.0,-78.0,-6.0,REST
1.1375,-167.0,-121.0,-107.0,-93.0,-122.0,-147.0,-100.0,-172.0,-96.0,-98.0,-33.0,-58.0,-82.0,-39.0,-109.0,-91.0,-65.0,-57.0,-54.0,-84.0,-97.0,-179.0,-177.0,-242.0,-168.0,-161.0,-116.0,-187.0,-197.0,-157.0,-198.0,-161.0,-109.0,-129.0,-123.0,-127.0,-142.0,-31.0,21.0,-117.0,15.0,40.0,-66.0,48.0,-71.0,-29.0,-44.0,-51.0,-69.0,-39.0,-37.0,-12.0,-45.0,-48.0,-35.0,-27.0,-58.0,-47.0,13.0,-50.0,-3.0,-67.0,-63.0,1.0,REST
1.1438,-96.0,-83.0,-74.0,-72.0,-105.0,-150.0,-87.0,-123.0,-62.0,-69.0,-18.0,-49.0,-95.0,-76.0,-78.0,-58.0,-44.0,-32.0,-34.0,-72.0,-75.0,-161.0,-163.0,-227.0,-150.0,-128.0,-83.0,-166.0,-182.0,-117.0,-158.0,-124.0,-72.0,-106.0,-105.0,-110.0,-139.0,-13.0,11.0,-73.0,2.0,88.0,-53.0,55.0,-63.0,-19.0,-36.0,-40.0,-49.0,-25.0,-24.0,-1.0,-39.0,-35.0,-25.0,-18.0,-43.0,-35.0,21.0,-46.0,-1.0,-59.0,-60.0,2.0,REST
1.15,-98.0,-76.0,-71.0,-73.0,-109.0,-169.0,-125.0,-109.0,-55.0,-68.0,-22.0,-65.0,-130.0,-134.0,-86.0,-67.0,-47.0,-40.0,-53.0,-97.0,-92.0,-181.0,-180.0,-239.0,-178.0,-149.0,-90.0,-184.0,-207.0,-130.0,-186.0,-152.0,-93.0,-119.0,-122.0,-127.0,-155.0,-46.0,15.0,-112.0,-18.0,85.0,-72.0,54.0,-84.0,-38.0,-51.0,-53.0,-61.0,-45.0,-46.0,-20.0,-58.0,-56.0,-36.0,-34.0,-58.0,-58.0,5.0,-62.0,-16.0,-79.0,-81.0,-17.0,REST
1.1562,-97.0,-71.0,-65.0,-68.0,-101.0,-154.0,-107.0,-98.0,-41.0,-56.0,-10.0,-54.0,-99.0,-101.0,-88.0,-61.0,-39.0,-34.0,-46.0,-84.0,-82.0,-163.0,-149.0,-210.0,-163.0,-125.0,-61.0,-152.0,-175.0,-122.0,-168.0,-118.0,-66.0,-86.0,-83.0,-91.0,-122.0,-30.0,36.0,-106.0,33.0,91.0,-39.0,80.0,-50.0,-16.0,-16.0,-26.0,-37.0,-20.0,-21.0,6.0,-31.0,-30.0,-5.0,-4.0,-32.0,-41.0,31.0,-39.0,10.0,-54.0,-60.0,9.0,REST
1.1625,-95.0,-64.0,-36.0,-26.0,-63.0,-114.0,-53.0,-126.0,-43.0,-34.0,19.0,-18.0,-50.0,-53.0,-72.0,-46.0,-20.0,-13.0,-19.0,-56.0,-58.0,-128.0,-119.0,-179.0,-126.0,-96.0,-41.0,-128.0,-145.0,-88.0,-154.0,-115.0,-57.0,-74.0,-65.0,-71.0,-101.0,-22.0,45.0,-110.0,53.0,88.0,-14.0,74.0,-44.0,-13.0,-16.0,-27.0,-40.0,-21.0,-24.0,4.0,-34.0,-41.0,-21.0,-14.0,-43.0,-48.0,18.0,-48.0,-2.0,-58.0,-65.0,-4.0,REST
1.1687,-109.0,-81.0,-55.0,-39.0,-79.0,-108.0,-45.0,-128.0,-60.0,-51.0,-5.0,-33.0,-63.0,-59.0,-90.0,-61.0,-34.0,-33.0,-36.0,-75.0,-81.0,-156.0,-151.0,-222.0,-138.0,-110.0,-59.0,-153.0,-177.0,-78.0,-158.0,-126.0,-77.0,-97.0,-88.0,-91.0,-117.0,-27.0,48.0,-110.0,27.0,79.0,-24.0,63.0,-49.0,-25.0,-22.0,-27.0,-49.0,-28.0,-31.0,-3.0,-39.0,-43.0,-30.0,-21.0,-47.0,-44.0,24.0,-29.0,1.0,-51.0,-54.0,5.0,REST
1.175,-80.0,-58.0,-49.0,-45.0,-89.0,-108.0,-78.0,-95.0,-37.0,-46.0,-4.0,-33.0,-65.0,-64.0,-61.0,-38.0,-23.0,-25.0,-26.0,-63.0,-67.0,-145.0,-131.0,-197.0,-124.0,-94.0,-39.0,-138.0,-169.0,-62.0,-145.0,-110.0,-63.0,-83.0,-76.0,-80.0,-107.0,-8.0,80.0,-108.0,42.0,73.0,12.0,79.0,-20.0,-16.0,0.0,-13.0,-36.0,-19.0,-16.0,11.0,-20.0,-19.0,-7.0,-8.0,-36.0,-37.0,40.0,-5.0,11.0,-42.0,-44.0,15.0,REST
1.1813,-88.0,-59.0,-48.0,-46.0,-78.0,-83.0,-68.0,-93.0,-37.0,-49.0,5.0,-20.0,-54.0,-52.0,-55.0,-36.0,-27.0,-26.0,-24.0,-57.0,-71.0,-148.0,-144.0,-196.0,-139.0,-119.0,-59.0,-146.0,-183.0,-111.0,-180.0,-136.0,-83.0,-93.0,-93.0,-96.0,-106.0,-28.0,30.0,-124.0,31.0,74.0,10.0,84.0,-36.0,-22.0,-18.0,-35.0,-52.0,-43.0,-35.0,-14.0,-45.0,-41.0,-22.0,-29.0,-55.0,-62.0,10.0,-33.0,-8.0,-61.0,-74.0,-12.0,REST
1.1875,-113.0,-83.0,-71.0,-64.0,-93.0,-120.0,-70.0,-118.0,-60.0,-65.0,-21.0,-41.0,-99.0,-86.0,-77.0,-58.0,-44.0,-43.0,-42.0,-85.0,-87.0,-179.0,-171.0,-231.0,-159.0,-133.0,-80.0,-165.0,-200.0,-114.0,-184.0,-135.0,-84.0,-100.0,-108.0,-111.0,-107.0,-55.0,8.0,-130.0,24.0,70.0,3.0,93.0,-48.0,-24.0,-23.0,-43.0,-48.0,-43.0,-34.0,-13.0,-46.0,-40.0,-16.0,-23.0,-51.0,-56.0,18.0,-36.0,-1.0,-49.0,-70.0,-1.0,REST
1.1938,-92.0,-70.0,-62.0,-58.0,-101.0,-155.0,-99.0,-108.0,-48.0,-56.0,-24.0,-52.0,-109.0,-89.0,-66.0,-49.0,-40.0,-37.0,-41.0,-83.0,-68.0,-183.0,-162.0,-233.0,-174.0,-125.0,-76.0,-162.0,-182.0,-128.0,-187.0,-129.0,-76.0,-98.0,-109.0,-114.0,-99.0,-32.0,-21.0,-91.0,-8.0,70.0,-14.0,97.0,-57.0,-22.0,-38.0,-52.0,-51.0,-42.0,-31.0,-8.0,-36.0,-28.0,1.0,-36.0,-61.0,-54.0,24.0,-32.0,-14.0,-57.0,-70.0,-10.0,REST
1.2,-69.0,-67.0,-67.0,-65.0,-102.0,-153.0,-84.0,-106.0,-58.0,-64.0,-20.0,-49.0,-80.0,-60.0,-73.0,-49.0,-51.0,-43.0,-41.0,-77.0,-63.0,-184.0,-172.0,-234.0,-191.0,-133.0,-83.0,-171.0,-190.0,-134.0,-186.0,-130.0,-82.0,-102.0,-111.0,-115.0,-105.0,-36.0,-29.0,-105.0,-30.0,58.0,-35.0,78.0,-63.0,-21.0,-53.0,-60.0,-65.0,-49.0,-40.0,-17.0,-46.0,-44.0,-17.0,-48.0,-76.0,-63.0,12.0,-43.0,-24.0,-68.0,-72.0,-22.0,REST
1.2063,-112.0,-87.0,-78.0,-71.0,-92.0,-139.0,-64.0,-125.0,-70.0,-67.0,-15.0,-49.0,-73.0,-80.0,-82.0,-44.0,-51.0,-41.0,-39.0,-89.0,-87.0,-168.0,-166.0,-216.0,-170.0,-117.0,-73.0,-163.0,-185.0,-83.0,-166.0,-119.0,-74.0,-95.0,-98.0,-103.0,-95.0,-18.0,48.0,-82.0,46.0,94.0,4.0,103.0,-16.0,-6.0,-8.0,-31.0,-34.0,-27.0,-19.0,4.0,-34.0,-40.0,-20.0,1.0,-40.0,-38.0,31.0,-27.0,17.0,-37.0,-52.0,17.0,REST
1.2125,-109.0,-70.0,-50.0,-42.0,-63.0,-120.0,-60.0,-101.0,-36.0,-33.0,14.0,-19.0,-48.0,-81.0,-44.0,-6.0,-17.0,-6.0,-3.0,-59.0,-62.0,-135.0,-130.0,-191.0,-118.0,-77.0,-45.0,-132.0,-155.0,-23.0,-116.0,-87.0,-43.0,-65.0,-63.0,-68.0,-33.0,20.0,89.0,-62.0,86.0,79.0,34.0,103.0,20.0,-1.0,29.0,3.0,5.0,-1.0,7.0,33.0,-6.0,-20.0,-11.0,32.0,-11.0,-12.0,46.0,-17.0,47.0,-20.0,-43.0,31.0,REST
1.2188,-55.0,-39.0,-23.0,-13.0,-36.0,-86.0,-21.0,-58.0,-3.0,-11.0,44.0,17.0,-5.0,-42.0,-23.0,14.0,2.0,13.0,16.0,-40.0,-49.0,-126.0,-122.0,-190.0,-92.0,-68.0,-41.0,-128.0,-160.0,-20.0,-103.0,-78.0,-31.0,-57.0,-58.0,-61.0,-36.0,-7.0,73.0,-56.0,66.0,54.0,24.0,84.0,12.0,2.0,26.0,13.0,15.0,10.0,14.0,33.0,-2.0,-13.0,-8.0,27.0,-8.0,-6.0,49.0,-18.0,47.0,-17.0,-36.0,31.0,REST
1.225,-19.0,-16.0,-10.0,-9.0,-39.0,-90.0,-29.0,-34.0,10.0,-4.0,56.0,17.0,-35.0,-52.0,-28.0,13.0,4.0,17.0,22.0,-44.0,-45.0,-122.0,-117.0,-171.0,-102.0,-72.0,-37.0,-119.0,-146.0,-52.0,-126.0,-83.0,-29.0,-58.0,-58.0,-63.0,-48.0,-13.0,55.0,-45.0,46.0,91.0,-3.0,90.0,-10.0,12.0,15.0,-10.0,-2.0,5.0,9.0,24.0,-11.0,-15.0,1.0,6.0,-30.0,-18.0,44.0,-21.0,25.0,-30.0,-44.0,23.0,REST
1.2313,-59.0,-46.0,-31.0,-31.0,-67.0,-128.0,-42.0,-66.0,-27.0,-31.0,30.0,-14.0,-91.0,-81.0,-76.0,-31.0,-25.0,-11.0,1.0,-67.0,-63.0,-154.0,-152.0,-180.0,-161.0,-111.0,-70.0,-142.0,-162.0,-98.0,-177.0,-131.0,-68.0,-97.0,-93.0,-97.0,-62.0,-10.0,24.0,-85.0,10.0,81.0,-37.0,86.0,-48.0,-16.0,-25.0,-56.0,-46.0,-40.0,-33.0,-11.0,-44.0,-45.0,-18.0,-39.0,-77.0,-59.0,7.0,-47.0,-20.0,-71.0,-84.0,-16.0,REST
1.2375,-116.0,-87.0,-67.0,-60.0,-93.0,-154.0,-40.0,-89.0,-62.0,-58.0,-5.0,-36.0,-99.0,-85.0,-97.0,-61.0,-48.0,-37.0,-16.0,-79.0,-73.0,-161.0,-157.0,-202.0,-154.0,-117.0,-84.0,-157.0,-184.0,-88.0,-177.0,-136.0,-77.0,-109.0,-98.0,-103.0,-76.0,4.0,40.0,-81.0,18.0,79.0,-14.0,88.0,-28.0,-13.0,-21.0,-51.0,-44.0,-40.0,-32.0,-3.0,-35.0,-32.0,-1.0,-35.0,-67.0,-51.0,20.0,-44.0,-8.0,-63.0,-79.0,-5.0,REST
1.2438,-70.0,-50.0,-38.0,-38.0,-71.0,-138.0,-33.0,-48.0,-30.0,-35.0,8.0,-14.0,-72.0,-56.0,-64.0,-25.0,-18.0,-13.0,7.0,-50.0,-53.0,-119.0,-124.0,-187.0,-99.0,-72.0,-61.0,-133.0,-159.0,-41.0,-123.0,-89.0,-39.0,-82.0,-68.0,-76.0,-55.0,42.0,79.0,-32.0,54.0,82.0,5.0,81.0,5.0,-8.0,4.0,-24.0,-21.0,-11.0,-12.0,14.0,-21.0,-25.0,-9.0,-15.0,-44.0,-40.0,30.0,-48.0,10.0,-51.0,-64.0,3.0,REST
1.25,-18.0,-23.0,-22.0,-26.0,-58.0,-133.0,-39.0,-24.0,-14.0,-29.0,16.0,-7.0,-73.0,-50.0,-59.0,-15.0,-7.0,-11.0,9.0,-48.0,-61.0,-126.0,-145.0,-197.0,-108.0,-78.0,-77.0,-146.0,-165.0,-59.0,-131.0,-97.0,-56.0,-92.0,-83.0,-89.0,-59.0,16.0,36.0,-80.0,24.0,49.0,-33.0,52.0,-13.0,-33.0,-11.0,-30.0,-30.0,-21.0,-25.0,-3.0,-39.0,-45.0,-38.0,-25.0,-53.0,-54.0,12.0,-65.0,-2.0,-62.0,-73.0,-17.0,REST
1.2563,-15.0,-34.0,-40.0,-45.0,-71.0,-133.0,-22.0,-30.0,-25.0,-36.0,5.0,-20.0,-79.0,-83.0,-62.0,-21.0,-18.0,-15.0,9.0,-53.0,-73.0,-147.0,-149.0,-191.0,-126.0,-93.0,-80.0,-149.0,-162.0,-76.0,-156.0,-103.0,-63.0,-90.0,-80.0,-84.0,-77.0,-7.0,60.0,-105.0,37.0,61.0,-19.0,59.0,-10.0,-10.0,5.0,-21.0,-17.0,-4.0,-6.0,18.0,-18.0,-25.0,-15.0,-8.0,-33.0,-29.0,37.0,-41.0,18.0,-44.0,-49.0,5.0,REST
1.2625,-52.0,-43.0,-34.0,-33.0,-57.0,-119.0,-14.0,-61.0,-30.0,-27.0,20.0,2.0,-46.0,-64.0,-55.0,-13.0,-8.0,2.0,27.0,-28.0,-48.0,-120.0,-124.0,-173.0,-122.0,-87.0,-69.0,-142.0,-155.0,-75.0,-172.0,-111.0,-66.0,-86.0,-83.0,-88.0,-71.0,-2.0,68.0,-65.0,46.0,69.0,-16.0,68.0,-18.0,0.0,-1.0,-33.0,-26.0,-7.0,-7.0,17.0,-15.0,-18.0,-13.0,-21.0,-40.0,-35.0,35.0,-34.0,12.0,-58.0,-55.0,-4.0,REST
1.2688,-118.0,-86.0,-67.0,-52.0,-74.0,-167.0,-33.0,-98.0,-65.0,-52.0,-1.0,-25.0,-92.0,-87.0,-83.0,-40.0,-32.0,-22.0,-2.0,-56.0,-69.0,-122.0,-147.0,-208.0,-143.0,-106.0,-86.0,-156.0,-178.0,-84.0,-193.0,-139.0,-86.0,-101.0,-100.0,-104.0,-52.0,-10.0,53.0,-61.0,11.0,65.0,-39.0,69.0,-38.0,-4.0,-15.0,-51.0,-39.0,-17.0,-17.0,1.0,-34.0,-39.0,-26.0,-34.0,-42.0,-44.0,20.0,-48.0,6.0,-68.0,-77.0,-8.0,REST
1.275,-74.0,-59.0,-50.0,-37.0,-61.0,-165.0,-20.0,-62.0,-38.0,-36.0,11.0,-14.0,-79.0,-81.0,-63.0,-16.0,-20.0,-7.0,13.0,-48.0,-70.0,-83.0,-115.0,-175.0,-99.0,-65.0,-59.0,-121.0,-152.0,-43.0,-143.0,-99.0,-49.0,-65.0,-62.0,-68.0,-30.0,1.0,82.0,-48.0,18.0,72.0,-15.0,105.0,-27.0,5.0,13.0,-40.0,-24.0,-8.0,-2.0,12.0,-22.0,-26.0,-8.0,-19.0,-32.0,-31.0,32.0,-44.0,14.0,-60.0,-71.0,7.0,REST
1.2812,-46.0,-36.0,-33.0,-30.0,-48.0,-137.0,-8.0,-69.0,-24.0,-37.0,11.0,-11.0,-81.0,-87.0,-69.0,-19.0,-25.0,-18.0,11.0,-63.0,-69.0,-111.0,-111.0,-161.0,-105.0,-67.0,-64.0,-117.0,-147.0,-60.0,-149.0,-96.0,-57.0,-71.0,-67.0,-71.0,-58.0,-13.0,53.0,-59.0,6.0,52.0,-22.0,120.0,-49.0,-15.0,-12.0,-65.0,-58.0,-45.0,-41.0,-20.0,-49.0,-44.0,-16.0,-44.0,-67.0,-61.0,6.0,-63.0,-16.0,-88.0,-89.0,-23.0,REST
1.2875,-62.0,-62.0,-61.0,-53.0,-69.0,-130.0,-18.0,-108.0,-58.0,-69.0,-23.0,-39.0,-116.0,-115.0,-93.0,-46.0,-53.0,-47.0,-13.0,-86.0,-86.0,-129.0,-115.0,-161.0,-107.0,-76.0,-71.0,-118.0,-138.0,-75.0,-149.0,-108.0,-68.0,-81.0,-69.0,-75.0,-50.0,-14.0,48.0,-71.0,11.0,27.0,-7.0,119.0,-39.0,-22.0,-15.0,-63.0,-50.0,-41.0,-43.0,-16.0,-43.0,-41.0,-2.0,-28.0,-54.0,-53.0,14.0,-52.0,-3.0,-71.0,-69.0,-8.0,REST
1.2938,-42.0,-54.0,-50.0,-43.0,-65.0,-124.0,-16.0,-84.0,-40.0,-54.0,-12.0,-25.0,-88.0,-100.0,-63.0,-17.0,-29.0,-25.0,-2.0,-59.0,-74.0,-104.0,-97.0,-156.0,-84.0,-61.0,-61.0,-117.0,-131.0,-46.0,-115.0,-98.0,-58.0,-78.0,-71.0,-78.0,-57.0,-20.0,69.0,-78.0,23.0,35.0,14.0,126.0,-29.0,-26.0,-12.0,-53.0,-36.0,-28.0,-33.0,-17.0,-49.0,-54.0,-21.0,-23.0,-54.0,-52.0,3.0,-62.0,2.0,-67.0,-70.0,-7.0,REST
1.3,-48.0,-51.0,-60.0,-63.0,-87.0,-169.0,-42.0,-88.0,-45.0,-70.0,-23.0,-49.0,-122.0,-133.0,-82.0,-34.0,-42.0,-49.0,-29.0,-86.0,-108.0,-115.0,-111.0,-174.0,-111.0,-82.0,-82.0,-136.0,-161.0,-80.0,-150.0,-115.0,-80.0,-100.0,-95.0,-98.0,-76.0,-34.0,32.0,-76.0,-14.0,31.0,-2.0,107.0,-53.0,-52.0,-37.0,-71.0,-58.0,-43.0,-48.0,-37.0,-69.0,-75.0,-52.0,-39.0,-65.0,-58.0,-11.0,-78.0,-1.0,-71.0,-81.0,-15.0,REST
1.3063,-54.0,-44.0,-58.0,-64.0,-76.0,-158.0,-25.0,-83.0,-39.0,-63.0,-9.0,-40.0,-112.0,-114.0,-83.0,-26.0,-32.0,-39.0,-16.0,-73.0,-95.0,-107.0,-91.0,-152.0,-98.0,-56.0,-44.0,-100.0,-134.0,-61.0,-126.0,-70.0,-41.0,-55.0,-46.0,-52.0,-26.0,7.0,37.0,-52.0,17.0,77.0,12.0,104.0,-13.0,-23.0,-1.0,-36.0,-22.0,-6.0,-9.0,4.0,-30.0,-40.0,-16.0,4.0,-20.0,-13.0,32.0,-45.0,33.0,-39.0,-53.0,17.0,REST
1.3125,5.0,6.0,-4.0,-14.0,-23.0,-90.0,23.0,-56.0,-7.0,-21.0,38.0,4.0,-56.0,-81.0,-42.0,10.0,5.0,1.0,16.0,-36.0,-54.0,-77.0,-63.0,-118.0,-49.0,-18.0,-6.0,-60.0,-92.0,-14.0,-74.0,-38.0,-13.0,-21.0,-17.0,-22.0,13.0,36.0,79.0,-40.0,42.0,101.0,15.0,116.0,6.0,-13.0,4.0,-26.0,-20.0,-8.0,-10.0,7.0,-25.0,-35.0,-10.0,-5.0,-27.0,-27.0,20.0,-53.0,4.0,-60.0,-73.0,-4.0,REST
1.3188,-62.0,-34.0,-35.0,-35.0,-48.0,-120.0,-10.0,-96.0,-53.0,-58.0,4.0,-31.0,-94.0,-118.0,-68.0,-31.0,-33.0,-39.0,-25.0,-71.0,-84.0,-110.0,-98.0,-157.0,-95.0,-65.0,-62.0,-114.0,-144.0,-64.0,-133.0,-99.0,-69.0,-73.0,-80.0,-83.0,-61.0,-15.0,54.0,-65.0,-32.0,56.0,-31.0,97.0,-42.0,-48.0,-45.0,-73.0,-63.0,-50.0,-51.0,-34.0,-65.0,-66.0,-35.0,-46.0,-64.0,-62.0,-14.0,-75.0,-31.0,-88.0,-102.0,-26.0,REST
1.325,-108.0,-62.0,-63.0,-66.0,-83.0,-163.0,-59.0,-87.0,-57.0,-62.0,-16.0,-53.0,-131.0,-143.0,-68.0,-29.0,-32.0,-40.0,-24.0,-76.0,-105.0,-100.0,-101.0,-159.0,-96.0,-65.0,-63.0,-119.0,-148.0,-53.0,-135.0,-85.0,-55.0,-64.0,-68.0,-74.0,-71.0,-5.0,68.0,-70.0,8.0,69.0,-8.0,112.0,-17.0,-26.0,-12.0,-55.0,-40.0,-18.0,-20.0,-6.0,-35.0,-41.0,-10.0,-17.0,-35.0,-31.0,18.0,-40.0,3.0,-53.0,-76.0,4.0,REST
1.3313,-53.0,-24.0,-32.0,-36.0,-59.0,-125.0,-39.0,-71.0,-24.0,-31.0,13.0,-17.0,-96.0,-107.0,-56.0,-12.0,-11.0,-14.0,2.0,-51.0,-77.0,-65.0,-88.0,-149.0,-81.0,-51.0,-52.0,-105.0,-135.0,-50.0,-124.0,-80.0,-50.0,-59.0,-57.0,-62.0,-22.0,10.0,64.0,-78.0,40.0,68.0,-13.0,122.0,-14.0,-23.0,-12.0,-52.0,-46.0,-23.0,-24.0,-3.0,-26.0,-35.0,-10.0,-22.0,-41.0,-35.0,17.0,-43.0,1.0,-58.0,-75.0,-12.0,REST
1.3375,-68.0,-36.0,-50.0,-42.0,-56.0,-105.0,-11.0,-89.0,-40.0,-43.0,11.0,-12.0,-73.0,-76.0,-68.0,-29.0,-27.0,-25.0,0.0,-43.0,-69.0,-100.0,-111.0,-161.0,-114.0,-77.0,-67.0,-107.0,-140.0,-83.0,-147.0,-100.0,-61.0,-64.0,-55.0,-59.0,-8.0,8.0,71.0,-65.0,27.0,46.0,-11.0,113.0,-15.0,-35.0,-13.0,-44.0,-41.0,-18.0,-14.0,12.0,-10.0,-23.0,-15.0,-12.0,-34.0,-20.0,35.0,-34.0,11.0,-46.0,-58.0,-1.0,REST
1.3438,-70.0,-26.0,-29.0,-14.0,-31.0,-71.0,3.0,-77.0,-24.0,-19.0,39.0,21.0,-32.0,-41.0,-49.0,-4.0,-3.0,2.0,32.0,-12.0,-55.0,-108.0,-99.0,-146.0,-95.0,-58.0,-41.0,-97.0,-131.0,-61.0,-128.0,-77.0,-38.0,-39.0,-34.0,-41.0,-40.0,-4.0,93.0,-62.0,28.0,49.0,-2.0,111.0,-10.0,-22.0,-9.0,-37.0,-23.0,-5.0,0.0,18.0,-11.0,-29.0,-13.0,-6.0,-35.0,-17.0,33.0,-37.0,4.0,-54.0,-67.0,-4.0,REST
1.35,-44.0,-12.0,-15.0,-11.0,-38.0,-97.0,-27.0,-64.0,-12.0,-18.0,39.0,1.0,-94.0,-93.0,-65.0,-9.0,-3.0,-15.0,5.0,-61.0,-107.0,-97.0,-106.0,-169.0,-92.0,-55.0,-48.0,-124.0,-168.0,-74.0,-136.0,-84.0,-47.0,-56.0,-62.0,-67.0,-66.0,-30.0,53.0,-61.0,-3.0,61.0,-35.0,126.0,-26.0,-26.0,-27.0,-58.0,-35.0,-22.0,-21.0,-11.0,-44.0,-62.0,-31.0,-31.0,-51.0,-39.0,8.0,-62.0,-14.0,-73.0,-93.0,-26.0,REST
1.3563,-40.0,-15.0,-21.0,-22.0,-58.0,-122.0,-33.0,-65.0,-10.0,-23.0,34.0,-11.0,-133.0,-116.0,-65.0,-8.0,-4.0,-13.0,9.0,-65.0,-99.0,-93.0,-89.0,-162.0,-104.0,-49.0,-37.0,-107.0,-148.0,-88.0,-135.0,-80.0,-26.0,-39.0,-38.0,-44.0,-16.0,2.0,73.0,-27.0,9.0,81.0,-8.0,136.0,7.0,-7.0,4.0,-35.0,-5.0,15.0,15.0,29.0,-5.0,-29.0,-1.0,-3.0,-12.0,-2.0,42.0,-35.0,21.0,-39.0,-63.0,5.0,REST
1.3625,-21.0,12.0,23.0,29.0,-8.0,-55.0,27.0,-25.0,30.0,18.0,77.0,40.0,-54.0,-55.0,-14.0,31.0,32.0,36.0,61.0,-6.0,-46.0,-67.0,-55.0,-117.0,-96.0,-26.0,-2.0,-67.0,-102.0,-59.0,-96.0,-51.0,3.0,-3.0,5.0,-1.0,37.0,18.0,100.0,-53.0,22.0,62.0,-4.0,111.0,25.0,-4.0,17.0,-22.0,2.0,22.0,24.0,44.0,10.0,-20.0,1.0,1.0,-10.0,-4.0,36.0,-36.0,18.0,-41.0,-62.0,-5.0,REST
1.3688,-34.0,3.0,17.0,30.0,7.0,-29.0,52.0,-23.0,20.0,7.0,71.0,43.0,-26.0,-22.0,-40.0,3.0,17.0,21.0,46.0,-13.0,-59.0,-79.0,-84.0,-129.0,-118.0,-52.0,-25.0,-87.0,-120.0,-81.0,-128.0,-71.0,-21.0,-28.0,-22.0,-25.0,20.0,-4.0,59.0,-61.0,7.0,76.0,-14.0,106.0,8.0,-2.0,5.0,-35.0,-23.0,-1.0,1.0,20.0,-13.0,-34.0,5.0,-11.0,-30.0,-24.0,18.0,-48.0,7.0,-55.0,-71.0,-15.0,REST
1.375,-24.0,4.0,2.0,8.0,-24.0,-78.0,-14.0,-36.0,10.0,-1.0,50.0,18.0,-78.0,-88.0,-56.0,-5.0,15.0,9.0,26.0,-36.0,-76.0,-90.0,-89.0,-131.0,-118.0,-51.0,-34.0,-90.0,-116.0,-76.0,-135.0,-77.0,-14.0,-40.0,-33.0,-38.0,4.0,6.0,77.0,-32.0,42.0,79.0,20.0,148.0,20.0,14.0,21.0,-29.0,-23.0,3.0,5.0,23.0,-11.0,-27.0,21.0,-1.0,-26.0,-15.0,25.0,-43.0,16.0,-47.0,-62.0,-4.0,REST
1.3813,-61.0,-8.0,-3.0,3.0,-36.0,-86.0,-44.0,-73.0,-10.0,-11.0,51.0,10.0,-81.0,-96.0,-61.0,-8.0,10.0,3.0,20.0,-48.0,-86.0,-109.0,-98.0,-164.0,-124.0,-59.0,-51.0,-115.0,-153.0,-73.0,-141.0,-96.0,-27.0,-56.0,-56.0,-61.0,-32.0,-14.0,72.0,-74.0,15.0,23.0,1.0,131.0,-1.0,-7.0,-5.0,-48.0,-43.0,-17.0,-14.0,5.0,-27.0,-48.0,-24.0,-23.0,-44.0,-34.0,1.0,-64.0,-1.0,-67.0,-74.0,-29.0,REST
1.3875,-60.0,-13.0,-17.0,-18.0,-42.0,-85.0,-45.0,-83.0,-23.0,-25.0,48.0,2.0,-77.0,-90.0,-76.0,-13.0,-2.0,-7.0,19.0,-52.0,-93.0,-120.0,-124.0,-177.0,-140.0,-70.0,-58.0,-119.0,-172.0,-93.0,-137.0,-82.0,-22.0,-58.0,-50.0,-57.0,-58.0,-30.0,61.0,-88.0,-4.0,18.0,-13.0,110.0,-2.0,-3.0,0.0,-33.0,-21.0,3.0,7.0,24.0,-3.0,-24.0,-17.0,-2.0,-22.0,-6.0,31.0,-42.0,22.0,-48.0,-44.0,-6.0,REST
1.3938,-29.0,22.0,15.0,7.0,-9.0,-63.0,-25.0,-55.0,15.0,11.0,80.0,36.0,-39.0,-52.0,-45.0,20.0,35.0,27.0,55.0,-9.0,-47.0,-96.0,-102.0,-149.0,-133.0,-58.0,-39.0,-86.0,-152.0,-95.0,-136.0,-66.0,-10.0,-41.0,-25.0,-32.0,-51.0,-12.0,69.0,-42.0,16.0,42.0,24.0,113.0,12.0,25.0,23.0,-17.0,-2.0,14.0,16.0,31.0,8.0,-13.0,2.0,11.0,-14.0,-10.0,34.0,-40.0,20.0,-56.0,-51.0,-9.0,REST
1.4,-81.0,-15.0,-6.0,-1.0,-22.0,-92.0,-38.0,-86.0,-11.0,-14.0,63.0,18.0,-56.0,-86.0,-57.0,-12.0,12.0,3.0,32.0,-36.0,-87.0,-97.0,-108.0,-168.0,-128.0,-74.0,-61.0,-109.0,-174.0,-80.0,-142.0,-90.0,-43.0,-62.0,-52.0,-55.0,-45.0,-23.0,78.0,-60.0,0.0,24.0,15.0,127.0,8.0,5.0,12.0,-24.0,-20.0,-6.0,-15.0,-1.0,-26.0,-46.0,-17.0,2.0,-28.0,-40.0,6.0,-63.0,-3.0,-78.0,-80.0,-29.0,REST
1.4062,-37.0,1.0,4.0,1.0,-31.0,-107.0,-20.0,-41.0,18.0,0.0,63.0,8.0,-61.0,-92.0,-28.0,15.0,22.0,10.0,36.0,-35.0,-95.0,-76.0,-79.0,-121.0,-94.0,-37.0,-31.0,-76.0,-131.0,-38.0,-90.0,-31.0,1.0,-20.0,-14.0,-21.0,15.0,21.0,95.0,-40.0,26.0,29.0,36.0,161.0,52.0,18.0,34.0,11.0,19.0,30.0,20.0,37.0,6.0,-13.0,19.0,35.0,5.0,-6.0,42.0,-31.0,28.0,-49.0,-49.0,2.0,REST
1.4125,8.0,44.0,44.0,36.0,7.0,-76.0,26.0,-27.0,49.0,30.0,90.0,41.0,-17.0,-22.0,-9.0,42.0,50.0,37.0,65.0,3.0,-61.0,-63.0,-59.0,-99.0,-80.0,-26.0,-17.0,-64.0,-115.0,-52.0,-103.0,-42.0,0.0,-24.0,-16.0,-23.0,-1.0,39.0,108.0,-22.0,60.0,31.0,67.0,150.0,42.0,13.0,11.0,-14.0,0.0,14.0,6.0,23.0,-6.0,-19.0,21.0,7.0,-18.0,-29.0,20.0,-39.0,8.0,-69.0,-59.0,-22.0,REST
1.4188,-72.0,-22.0,-13.0,-11.0,-34.0,-130.0,-15.0,-101.0,-16.0,-22.0,49.0,0.0,-87.0,-97.0,-66.0,-13.0,12.0,-5.0,19.0,-42.0,-107.0,-88.0,-116.0,-179.0,-115.0,-72.0,-69.0,-122.0,-176.0,-90.0,-145.0,-103.0,-47.0,-77.0,-68.0,-71.0,-59.0,-6.0,82.0,-74.0,21.0,17.0,40.0,134.0,11.0,-19.0,-12.0,-41.0,-24.0,-5.0,-13.0,3.0,-29.0,-45.0,-11.0,-13.0,-38.0,-33.0,13.0,-44.0,-2.0,-68.0,-54.0,-28.0,REST
1.425,-64.0,-19.0,-11.0,-11.0,-36.0,-115.0,0.0,-67.0,-2.0,-5.0,62.0,13.0,-76.0,-90.0,-44.0,14.0,37.0,18.0,41.0,-18.0,-83.0,-64.0,-103.0,-165.0,-107.0,-46.0,-36.0,-92.0,-154.0,-61.0,-115.0,-62.0,-10.0,-39.0,-21.0,-27.0,-32.0,32.0,90.0,-78.0,38.0,11.0,52.0,153.0,43.0,-3.0,25.0,-7.0,18.0,38.0,35.0,51.0,20.0,4.0,16.0,18.0,-6.0,19.0,63.0,-12.0,29.0,-25.0,-22.0,5.0,REST
1.4313,-16.0,25.0,31.0,30.0,7.0,-61.0,45.0,-49.0,25.0,27.0,92.0,50.0,-33.0,-45.0,-25.0,35.0,64.0,42.0,63.0,1.0,-44.0,-44.0,-74.0,-129.0,-91.0,-23.0,-8.0,-74.0,-131.0,-48.0,-101.0,-44.0,-5.0,-28.0,-10.0,-15.0,-32.0,46.0,77.0,-62.0,34.0,12.0,50.0,144.0,40.0,7.0,8.0,-14.0,6.0,24.0,17.0,33.0,4.0,-12.0,8.0,-4.0,-23.0,-2.0,37.0,-38.0,7.0,-46.0,-53.0,-16.0,REST
1.4375,3.0,19.0,10.0,6.0,-8.0,-83.0,34.0,-55.0,8.0,5.0,64.0,27.0,-61.0,-69.0,-39.0,8.0,37.0,17.0,33.0,-36.0,-86.0,-82.0,-96.0,-144.0,-129.0,-44.0,-19.0,-84.0,-133.0,-88.0,-122.0,-63.0,-18.0,-39.0,-19.0,-25.0,-39.0,51.0,65.0,-55.0,27.0,20.0,50.0,150.0,51.0,22.0,14.0,-1.0,15.0,33.0,22.0,34.0,4.0,-10.0,22.0,17.0,1.0,16.0,47.0,-27.0,36.0,-24.0,-39.0,13.0,REST
1.4438,-45.0,15.0,29.0,27.0,7.0,-86.0,32.0,-29.0,28.0,31.0,90.0,46.0,-50.0,-65.0,1.0,40.0,66.0,50.0,65.0,-7.0,-67.0,-50.0,-55.0,-108.0,-105.0,-13.0,11.0,-48.0,-107.0,-48.0,-88.0,-37.0,17.0,-5.0,15.0,7.0,-15.0,75.0,123.0,-23.0,62.0,52.0,83.0,165.0,78.0,41.0,37.0,25.0,43.0,62.0,48.0,53.0,25.0,8.0,36.0,46.0,25.0,32.0,62.0,-14.0,55.0,-12.0,-32.0,21.0,REST
1.45,-31.0,27.0,45.0,42.0,18.0,-80.0,36.0,-23.0,37.0,37.0,107.0,53.0,-50.0,-52.0,-17.0,37.0,70.0,52.0,72.0,-11.0,-65.0,-30.0,-58.0,-119.0,-93.0,-6.0,3.0,-54.0,-121.0,-48.0,-78.0,-37.0,8.0,-11.0,-1.0,-7.0,-29.0,55.0,112.0,-31.0,44.0,47.0,59.0,140.0,60.0,29.0,20.0,10.0,26.0,45.0,30.0,33.0,9.0,-6.0,22.0,27.0,10.0,8.0,41.0,-32.0,39.0,-31.0,-49.0,-3.0,REST
1.4563,-5.0,32.0,32.0,32.0,-1.0,-88.0,29.0,-29.0,35.0,35.0,103.0,41.0,-51.0,-52.0,-26.0,39.0,73.0,47.0,68.0,-13.0,-75.0,-48.0,-71.0,-130.0,-113.0,-20.0,-7.0,-65.0,-137.0,-72.0,-93.0,-40.0,7.0,-12.0,-6.0,-13.0,-37.0,26.0,75.0,-51.0,9.0,20.0,51.0,127.0,67.0,22.0,30.0,14.0,41.0,63.0,47.0,52.0,23.0,4.0,20.0,39.0,25.0,28.0,60.0,-23.0,58.0,-7.0,-26.0,18.0,REST
1.4625,15.0,50.0,47.0,46.0,4.0,-89.0,34.0,15.0,57.0,55.0,121.0,51.0,-30.0,-48.0,6.0,58.0,97.0,62.0,82.0,6.0,-77.0,-53.0,-79.0,-121.0,-114.0,-24.0,-7.0,-60.0,-128.0,-78.0,-111.0,-49.0,3.0,-15.0,-6.0,-12.0,-34.0,18.0,45.0,-59.0,9.0,-18.0,40.0,122.0,58.0,8.0,14.0,-12.0,24.0,44.0,41.0,49.0,21.0,-2.0,4.0,17.0,-7.0,8.0,54.0,-33.0,33.0,-24.0,-37.0,-1.0,REST
1.4688,-39.0,6.0,10.0,15.0,-11.0,-105.0,26.0,-44.0,7.0,11.0,87.0,35.0,-27.0,-45.0,-49.0,1.0,54.0,27.0,51.0,-8.0,-91.0,-73.0,-102.0,-144.0,-131.0,-55.0,-35.0,-82.0,-138.0,-92.0,-157.0,-97.0,-39.0,-50.0,-38.0,-41.0,-52.0,20.0,54.0,-59.0,27.0,-26.0,38.0,124.0,27.0,-3.0,-17.0,-48.0,-17.0,4.0,14.0,34.0,11.0,-8.0,7.0,-8.0,-42.0,-16.0,47.0,-32.0,11.0,-43.0,-49.0,-7.0,REST
1.475,-106.0,-44.0,-22.0,-11.0,-22.0,-120.0,7.0,-99.0,-39.0,-12.0,69.0,31.0,-36.0,-48.0,-69.0,-10.0,40.0,25.0,48.0,-2.0,-67.0,-75.0,-88.0,-152.0,-131.0,-51.0,-39.0,-83.0,-155.0,-82.0,-143.0,-87.0,-35.0,-47.0,-29.0,-36.0,-53.0,28.0,71.0,-39.0,13.0,31.0,52.0,121.0,35.0,23.0,-3.0,-28.0,2.0,19.0,30.0,51.0,24.0,6.0,28.0,5.0,-20.0,-3.0,60.0,-17.0,16.0,-33.0,-40.0,3.0,REST
1.4813,-73.0,-20.0,1.0,3.0,-10.0,-109.0,14.0,-30.0,-5.0,12.0,80.0,42.0,-37.0,-37.0,-31.0,18.0,53.0,37.0,53.0,-8.0,-77.0,-74.0,-85.0,-137.0,-130.0,-40.0,-34.0,-74.0,-154.0,-73.0,-115.0,-67.0,-27.0,-44.0,-26.0,-33.0,-44.0,24.0,44.0,-43.0,1.0,35.0,18.0,106.0,30.0,25.0,-6.0,-25.0,3.0,14.0,16.0,33.0,4.0,-16.0,7.0,-4.0,-19.0,-14.0,41.0,-37.0,14.0,-41.0,-49.0,-14.0,REST
1.4875,-3.0,7.0,4.0,-3.0,-12.0,-117.0,12.0,-22.0,11.0,12.0,72.0,29.0,-67.0,-49.0,-28.0,17.0,46.0,27.0,45.0,-21.0,-88.0,-69.0,-89.0,-120.0,-112.0,-24.0,-15.0,-53.0,-123.0,-55.0,-90.0,-50.0,-7.0,-33.0,-13.0,-18.0,-20.0,45.0,63.0,-24.0,45.0,32.0,33.0,112.0,48.0,40.0,20.0,-4.0,17.0,36.0,39.0,50.0,24.0,2.0,26.0,31.0,12.0,12.0,67.0,-18.0,54.0,-8.0,-26.0,18.0,REST
1.4938,21.0,34.0,36.0,26.0,20.0,-78.0,51.0,-23.0,37.0,44.0,105.0,61.0,-33.0,2.0,2.0,52.0,74.0,63.0,87.0,26.0,-51.0,-52.0,-56.0,-101.0,-74.0,4.0,21.0,-24.0,-93.0,-35.0,-77.0,-43.0,12.0,-5.0,18.0,12.0,7.0,63.0,99.0,-16.0,53.0,45.0,64.0,122.0,65.0,56.0,38.0,10.0,35.0,56.0,59.0,74.0,45.0,19.0,48.0,44.0,23.0,23.0,76.0,-11.0,68.0,-4.0,-23.0,20.0,REST
1.5,-73.0,-4.0,7.0,11.0,10.0,-78.0,59.0,-61.0,11.0,21.0,87.0,45.0,-45.0,-14.0,-26.0,25.0,49.0,40.0,64.0,2.0,-80.0,-93.0,-98.0,-152.0,-127.0,-53.0,-32.0,-77.0,-152.0,-99.0,-151.0,-109.0,-45.0,-49.0,-37.0,-41.0,-31.0,11.0,44.0,-65.0,-12.0,23.0,19.0,93.0,26.0,22.0,2.0,-28.0,4.0,21.0,19.0,36.0,2.0,-23.0,13.0,11.0,-4.0,-10.0,39.0,-45.0,38.0,-37.0,-49.0,-10.0,REST
1.5063,-81.0,-32.0,-32.0,-26.0,-30.0,-127.0,9.0,-72.0,-7.0,-4.0,43.0,7.0,-96.0,-65.0,-45.0,11.0,33.0,20.0,41.0,-25.0,-108.0,-95.0,-114.0,-155.0,-130.0,-58.0,-37.0,-74.0,-156.0,-73.0,-123.0,-78.0,-29.0,-39.0,-26.0,-33.0,-25.0,14.0,56.0,-62.0,-1.0,12.0,37.0,97.0,41.0,17.0,18.0,-15.0,26.0,40.0,40.0,57.0,23.0,-8.0,13.0,33.0,20.0,13.0,63.0,-31.0,46.0,-22.0,-35.0,9.0,REST
1.5125,17.0,33.0,25.0,22.0,11.0,-83.0,41.0,-19.0,48.0,38.0,80.0,49.0,-38.0,-12.0,-4.0,57.0,67.0,55.0,77.0,19.0,-65.0,-45.0,-73.0,-119.0,-84.0,-17.0,-1.0,-35.0,-126.0,-39.0,-72.0,-39.0,5.0,-13.0,4.0,-4.0,-14.0,29.0,55.0,-44.0,27.0,4.0,64.0,102.0,57.0,25.0,32.0,-5.0,36.0,41.0,42.0,55.0,25.0,-7.0,3.0,33.0,12.0,1.0,51.0,-39.0,38.0,-32.0,-49.0,2.0,REST
1.5188,-17.0,13.0,13.0,15.0,10.0,-88.0,29.0,-35.0,30.0,25.0,70.0,38.0,-46.0,-14.0,-11.0,37.0,46.0,38.0,57.0,-2.0,-93.0,-64.0,-87.0,-138.0,-105.0,-38.0,-19.0,-49.0,-136.0,-88.0,-114.0,-73.0,-12.0,-28.0,-10.0,-15.0,-31.0,13.0,49.0,-60.0,21.0,26.0,76.0,117.0,62.0,32.0,41.0,1.0,42.0,44.0,37.0,50.0,18.0,-8.0,3.0,45.0,20.0,9.0,55.0,-27.0,59.0,-15.0,-36.0,20.0,REST
1.525,-28.0,23.0,27.0,30.0,14.0,-90.0,48.0,0.0,51.0,51.0,78.0,39.0,-69.0,-59.0,25.0,69.0,73.0,58.0,72.0,2.0,-80.0,-55.0,-62.0,-129.0,-76.0,-9.0,7.0,-35.0,-120.0,-42.0,-56.0,-29.0,25.0,2.0,14.0,7.0,-27.0,21.0,108.0,-29.0,52.0,63.0,108.0,154.0,94.0,53.0,70.0,26.0,67.0,71.0,62.0,81.0,40.0,17.0,29.0,65.0,44.0,37.0,81.0,-2.0,81.0,11.0,-9.0,36.0,REST
1.5312,21.0,48.0,46.0,37.0,11.0,-86.0,43.0,31.0,62.0,53.0,81.0,39.0,-63.0,-57.0,25.0,64.0,76.0,57.0,74.0,2.0,-72.0,-63.0,-64.0,-135.0,-71.0,-10.0,4.0,-54.0,-139.0,-51.0,-56.0,-26.0,19.0,-11.0,-5.0,-10.0,-41.0,10.0,99.0,-40.0,54.0,39.0,87.0,150.0,80.0,35.0,45.0,4.0,41.0,48.0,39.0,65.0,25.0,-2.0,16.0,38.0,17.0,15.0,60.0,-22.0,55.0,-19.0,-26.0,8.0,REST
1.5375,-6.0,16.0,22.0,17.0,-8.0,-106.0,24.0,-8.0,33.0,26.0,71.0,31.0,-52.0,-28.0,5.0,39.0,57.0,43.0,67.0,3.0,-80.0,-55.0,-60.0,-118.0,-58.0,-1.0,12.0,-49.0,-128.0,-33.0,-49.0,-17.0,27.0,-4.0,7.0,-2.0,-35.0,12.0,118.0,-58.0,78.0,31.0,111.0,146.0,98.0,45.0,60.0,20.0,61.0,64.0,55.0,82.0,41.0,16.0,37.0,58.0,36.0,33.0,74.0,-11.0,70.0,-13.0,-18.0,23.0,REST
1.5438,34.0,49.0,59.0,49.0,21.0,-87.0,40.0,23.0,68.0,63.0,96.0,67.0,-20.0,12.0,42.0,82.0,86.0,72.0,91.0,30.0,-62.0,-32.0,-29.0,-83.0,-27.0,29.0,39.0,-11.0,-83.0,8.0,-25.0,-2.0,53.0,24.0,30.0,23.0,-11.0,49.0,131.0,-34.0,86.0,84.0,128.0,159.0,102.0,58.0,63.0,37.0,76.0,74.0,63.0,81.0,40.0,13.0,27.0,63.0,41.0,30.0,66.0,-20.0,66.0,-16.0,-26.0,21.0,REST
1.55,40.0,49.0,57.0,39.0,17.0,-95.0,33.0,12.0,70.0,64.0,83.0,58.0,-43.0,-21.0,26.0,73.0,77.0,62.0,72.0,7.0,-86.0,-58.0,-42.0,-96.0,-63.0,8.0,18.0,-12.0,-83.0,-48.0,-72.0,-22.0,39.0,14.0,20.0,16.0,-18.0,62.0,89.0,-35.0,63.0,92.0,108.0,162.0,87.0,39.0,49.0,41.0,63.0,62.0,56.0,67.0,26.0,-8.0,3.0,55.0,34.0,23.0,58.0,-29.0,57.0,-21.0,-27.0,18.0,REST
1.5563,34.0,51.0,55.0,42.0,23.0,-80.0,45.0,17.0,68.0,68.0,95.0,56.0,-36.0,-29.0,26.0,75.0,84.0,73.0,81.0,17.0,-83.0,-53.0,-34.0,-79.0,-68.0,18.0,25.0,11.0,-70.0,-27.0,-59.0,1.0,54.0,33.0,44.0,39.0,-13.0,72.0,110.0,-20.0,73.0,81.0,120.0,161.0,100.0,50.0,78.0,58.0,80.0,79.0,81.0,90.0,52.0,17.0,25.0,73.0,52.0,49.0,86.0,-8.0,76.0,-3.0,-4.0,41.0,REST
1.5625,24.0,58.0,76.0,70.0,54.0,-49.0,76.0,34.0,71.0,81.0,124.0,89.0,-5.0,-5.0,34.0,94.0,100.0,96.0,105.0,45.0,-69.0,-27.0,-27.0,-76.0,-50.0,30.0,34.0,16.0,-88.0,2.0,-45.0,1.0,60.0,40.0,52.0,46.0,-9.0,61.0,109.0,-24.0,73.0,52.0,110.0,150.0,88.0,40.0,74.0,48.0,73.0,70.0,76.0,90.0,55.0,18.0,25.0,60.0,37.0,35.0,74.0,-12.0,67.0,-13.0,-15.0,24.0,REST
1.5688,3.0,40.0,61.0,56.0,54.0,-42.0,86.0,18.0,52.0,64.0,120.0,90.0,8.0,2.0,13.0,74.0,78.0,81.0,93.0,41.0,-82.0,-45.0,-55.0,-97.0,-49.0,13.0,10.0,-6.0,-133.0,-18.0,-73.0,-25.0,40.0,16.0,31.0,26.0,-2.0,39.0,93.0,-76.0,67.0,33.0,97.0,144.0,76.0,29.0,62.0,35.0,62.0,54.0,64.0,80.0,44.0,11.0,26.0,53.0,26.0,29.0,72.0,-14.0,64.0,-13.0,-18.0,22.0,REST
1.575,-11.0,36.0,51.0,34.0,31.0,-67.0,73.0,8.0,50.0,58.0,106.0,61.0,-27.0,-24.0,6.0,71.0,73.0,75.0,86.0,21.0,-97.0,-50.0,-56.0,-107.0,-63.0,10.0,-5.0,-10.0,-121.0,-37.0,-82.0,-26.0,41.0,8.0,21.0,14.0,3.0,49.0,101.0,-58.0,88.0,54.0,124.0,139.0,93.0,51.0,80.0,39.0,78.0,67.0,72.0,82.0,46.0,13.0,43.0,67.0,40.0,44.0,85.0,-2.0,80.0,6.0,-16.0,39.0,REST
1.5813,-8.0,42.0,51.0,27.0,17.0,-66.0,52.0,22.0,56.0,55.0,97.0,48.0,-48.0,-42.0,12.0,81.0,75.0,74.0,77.0,5.0,-106.0,-56.0,-54.0,-115.0,-80.0,-2.0,-16.0,-11.0,-108.0,-54.0,-100.0,-35.0,29.0,-3.0,10.0,3.0,-1.0,55.0,62.0,-51.0,41.0,52.0,114.0,122.0,83.0,44.0,74.0,39.0,79.0,64.0,64.0,72.0,33.0,5.0,47.0,62.0,40.0,41.0,77.0,-2.0,77.0,3.0,-16.0,25.0,REST
1.5875,2.0,29.0,29.0,7.0,1.0,-60.0,30.0,40.0,45.0,37.0,81.0,42.0,-62.0,-56.0,12.0,71.0,66.0,59.0,60.0,-6.0,-114.0,-97.0,-82.0,-124.0,-109.0,-30.0,-34.0,-28.0,-128.0,-67.0,-120.0,-54.0,-6.0,-24.0,-5.0,-11.0,-2.0,50.0,46.0,-63.0,42.0,29.0,118.0,108.0,76.0,35.0,77.0,33.0,77.0,63.0,65.0,79.0,40.0,14.0,50.0,72.0,47.0,52.0,90.0,15.0,88.0,18.0,4.0,42.0,REST
1.5938,-3.0,6.0,17.0,4.0,-1.0,-37.0,46.0,-10.0,29.0,30.0,81.0,53.0,-45.0,-26.0,6.0,61.0,63.0,61.0,70.0,17.0,-92.0,-100.0,-86.0,-103.0,-108.0,-35.0,-31.0,-23.0,-126.0,-58.0,-111.0,-58.0,-16.0,-31.0,-5.0,-10.0,13.0,60.0,72.0,-52.0,70.0,34.0,113.0,108.0,62.0,26.0,67.0,15.0,60.0,52.0,57.0,74.0,41.0,11.0,31.0,60.0,30.0,38.0,83.0,6.0,69.0,8.0,-8.0,31.0,REST
1.6,-23.0,-24.0,-11.0,-17.0,-24.0,-63.0,30.0,-47.0,1.0,0.0,52.0,20.0,-75.0,-59.0,-37.0,25.0,23.0,27.0,36.0,-6.0,-121.0,-120.0,-120.0,-146.0,-133.0,-73.0,-64.0,-62.0,-167.0,-82.0,-156.0,-108.0,-52.0,-65.0,-44.0,-50.0,-29.0,5.0,51.0,-100.0,27.0,41.0,73.0,100.0,16.0,8.0,22.0,-26.0,15.0,13.0,15.0,32.0,3.0,-24.0,6.0,19.0,-3.0,3.0,52.0,-23.0,36.0,-25.0,-36.0,2.0,REST
1.6063,-84.0,-60.0,-40.0,-41.0,-48.0,-93.0,5.0,-63.0,-28.0,-29.0,23.0,-11.0,-97.0,-91.0,-65.0,11.0,3.0,4.0,10.0,-30.0,-153.0,-145.0,-124.0,-167.0,-144.0,-83.0,-69.0,-67.0,-167.0,-96.0,-171.0,-111.0,-51.0,-64.0,-39.0,-49.0,-25.0,6.0,30.0,-95.0,-5.0,83.0,71.0,113.0,12.0,19.0,16.0,-28.0,16.0,14.0,13.0,31.0,4.0,-15.0,25.0,25.0,1.0,4.0,59.0,-7.0,43.0,-20.0,-33.0,14.0,REST
1.6125,-66.0,-35.0,-18.0,-29.0,-40.0,-95.0,27.0,-41.0,-17.0,-24.0,26.0,-7.0,-110.0,-89.0,-59.0,19.0,14.0,8.0,13.0,-25.0,-132.0,-129.0,-102.0,-139.0,-136.0,-73.0,-48.0,-49.0,-136.0,-92.0,-163.0,-89.0,-40.0,-59.0,-28.0,-37.0,-3.0,25.0,20.0,-62.0,-3.0,86.0,60.0,116.0,10.0,12.0,3.0,-41.0,-1.0,0.0,3.0,23.0,-5.0,-20.0,15.0,14.0,-20.0,-15.0,44.0,-17.0,34.0,-35.0,-44.0,-2.0,REST
1.6188,-73.0,-50.0,-31.0,-37.0,-43.0,-103.0,54.0,-68.0,-46.0,-44.0,21.0,-18.0,-122.0,-83.0,-88.0,-24.0,-5.0,-6.0,5.0,-29.0,-138.0,-125.0,-108.0,-134.0,-139.0,-75.0,-45.0,-52.0,-134.0,-93.0,-163.0,-88.0,-37.0,-61.0,-28.0,-34.0,17.0,16.0,8.0,-63.0,1.0,72.0,58.0,103.0,8.0,6.0,6.0,-34.0,-4.0,3.0,13.0,34.0,4.0,-11.0,15.0,22.0,-11.0,-1.0,56.0,-15.0,52.0,-21.0,-22.0,14.0,REST
1.625,-24.0,-16.0,-2.0,-11.0,-18.0,-72.0,77.0,-27.0,-10.0,-9.0,50.0,11.0,-90.0,-37.0,-52.0,13.0,25.0,30.0,38.0,8.0,-115.0,-80.0,-76.0,-98.0,-87.0,-27.0,-12.0,-23.0,-109.0,-45.0,-107.0,-50.0,-5.0,-32.0,-1.0,-7.0,39.0,33.0,38.0,-18.0,37.0,100.0,97.0,121.0,40.0,33.0,39.0,2.0,31.0,39.0,44.0,62.0,32.0,17.0,44.0,53.0,22.0,27.0,84.0,4.0,76.0,3.0,-1.0,35.0,REST
1.6313,-24.0,4.0,12.0,-2.0,-11.0,-64.0,61.0,-3.0,6.0,-1.0,51.0,24.0,-85.0,-16.0,-33.0,34.0,39.0,38.0,46.0,14.0,-107.0,-59.0,-77.0,-101.0,-74.0,-22.0,-22.0,-27.0,-119.0,-24.0,-86.0,-68.0,-21.0,-44.0,-12.0,-17.0,35.0,24.0,74.0,-22.0,42.0,61.0,84.0,105.0,39.0,23.0,22.0,-11.0,20.0,28.0,33.0,48.0,25.0,6.0,34.0,41.0,12.0,17.0,73.0,1.0,64.0,-6.0,-8.0,21.0,REST
1.6375,-46.0,-11.0,-7.0,-13.0,-18.0,-68.0,68.0,-15.0,-14.0,-13.0,39.0,15.0,-90.0,-15.0,-41.0,13.0,30.0,32.0,49.0,10.0,-114.0,-67.0,-83.0,-131.0,-90.0,-34.0,-34.0,-42.0,-129.0,-65.0,-112.0,-87.0,-21.0,-42.0,-9.0,-15.0,35.0,16.0,45.0,-33.0,45.0,77.0,86.0,88.0,44.0,37.0,26.0,-20.0,27.0,33.0,44.0,55.0,33.0,6.0,34.0,50.0,24.0,32.0,83.0,12.0,82.0,11.0,7.0,36.0,REST
1.6438,-55.0,-5.0,11.0,7.0,-7.0,-61.0,80.0,3.0,-7.0,7.0,54.0,28.0,-95.0,-26.0,-17.0,33.0,45.0,52.0,65.0,21.0,-102.0,-81.0,-65.0,-126.0,-88.0,-22.0,-18.0,-35.0,-124.0,-50.0,-107.0,-69.0,5.0,-22.0,4.0,-3.0,27.0,8.0,70.0,-17.0,50.0,122.0,118.0,99.0,57.0,52.0,48.0,-2.0,44.0,47.0,54.0,67.0,41.0,14.0,40.0,66.0,33.0,35.0,81.0,12.0,87.0,10.0,4.0,36.0,REST
1.65,-32.0,8.0,22.0,11.0,-10.0,-52.0,72.0,34.0,10.0,16.0,61.0,31.0,-100.0,-22.0,-13.0,35.0,45.0,49.0,54.0,25.0,-106.0,-94.0,-83.0,-125.0,-106.0,-36.0,-25.0,-44.0,-134.0,-57.0,-112.0,-71.0,-3.0,-28.0,-10.0,-15.0,39.0,-4.0,62.0,-36.0,13.0,97.0,108.0,91.0,51.0,27.0,41.0,4.0,45.0,44.0,44.0,65.0,33.0,3.0,21.0,56.0,26.0,31.0,70.0,2.0,77.0,-2.0,-1.0,25.0,REST
1.6562,-15.0,20.0,20.0,7.0,-11.0,-50.0,74.0,70.0,31.0,23.0,69.0,30.0,-114.0,-17.0,-1.0,47.0,53.0,53.0,61.0,26.0,-110.0,-79.0,-95.0,-129.0,-102.0,-32.0,-17.0,-41.0,-132.0,-46.0,-104.0,-64.0,-2.0,-26.0,-1.0,-7.0,56.0,2.0,80.0,-23.0,43.0,113.0,118.0,105.0,73.0,29.0,54.0,11.0,63.0,62.0,64.0,83.0,52.0,23.0,37.0,65.0,37.0,54.0,90.0,23.0,86.0,12.0,17.0,51.0,REST
1.6625,31.0,42.0,41.0,29.0,12.0,-26.0,105.0,74.0,47.0,37.0,91.0,52.0,-101.0,14.0,10.0,65.0,66.0,72.0,89.0,41.0,-80.0,-62.0,-74.0,-121.0,-74.0,-11.0,-1.0,-29.0,-132.0,-18.0,-80.0,-59.0,4.0,-24.0,11.0,6.0,42.0,6.0,77.0,-23.0,81.0,118.0,117.0,99.0,77.0,30.0,44.0,4.0,51.0,44.0,54.0,70.0,43.0,14.0,33.0,49.0,14.0,28.0,70.0,14.0,60.0,-14.0,-7.0,34.0,REST
1.6688,-14.0,3.0,14.0,7.0,-2.0,-29.0,105.0,31.0,7.0,2.0,59.0,29.0,-129.0,-25.0,-29.0,30.0,31.0,38.0,54.0,5.0,-131.0,-65.0,-88.0,-139.0,-91.0,-34.0,-27.0,-51.0,-154.0,-16.0,-110.0,-92.0,-20.0,-51.0,-20.0,-23.0,1.0,-11.0,85.0,-57.0,69.0,117.0,105.0,85.0,57.0,15.0,34.0,-7.0,29.0,22.0,29.0,39.0,8.0,-15.0,12.0,44.0,4.0,7.0,46.0,-4.0,58.0,-18.0,-24.0,42.0,REST
1.675,-63.0,-18.0,-1.0,-12.0,-24.0,-48.0,46.0,33.0,3.0,-4.0,47.0,20.0,-149.0,-53.0,-21.0,41.0,40.0,42.0,52.0,5.0,-137.0,-67.0,-69.0,-120.0,-99.0,-27.0,-20.0,-34.0,-120.0,-31.0,-111.0,-77.0,2.0,-31.0,-6.0,-11.0,16.0,-1.0,93.0,-48.0,75.0,123.0,121.0,110.0,74.0,40.0,60.0,16.0,52.0,48.0,52.0,63.0,33.0,16.0,46.0,67.0,35.0,35.0,68.0,9.0,79.0,10.0,-9.0,67.0,REST
1.6812,-15.0,15.0,28.0,14.0,-7.0,-25.0,52.0,73.0,30.0,24.0,68.0,40.0,-115.0,-21.0,-4.0,53.0,61.0,56.0,62.0,25.0,-114.0,-83.0,-73.0,-101.0,-99.0,-16.0,-12.0,-29.0,-119.0,-34.0,-98.0,-73.0,3.0,-29.0,-3.0,-10.0,47.0,-5.0,63.0,-40.0,44.0,86.0,80.0,118.0,57.0,24.0,36.0,2.0,32.0,25.0,31.0,45.0,18.0,-11.0,14.0,34.0,11.0,11.0,40.0,-14.0,50.0,-8.0,-32.0,30.0,REST
1.6875,-6.0,6.0,11.0,-4.0,-16.0,-25.0,60.0,70.0,18.0,9.0,48.0,23.0,-115.0,-12.0,-33.0,18.0,35.0,31.0,35.0,3.0,-141.0,-101.0,-95.0,-119.0,-128.0,-30.0,-23.0,-42.0,-140.0,-86.0,-124.0,-99.0,-13.0,-45.0,-13.0,-21.0,50.0,-10.0,11.0,-63.0,4.0,79.0,50.0,102.0,40.0,14.0,21.0,-10.0,23.0,16.0,23.0,42.0,16.0,-14.0,11.0,29.0,4.0,9.0,43.0,-7.0,50.0,-8.0,-29.0,26.0,REST
1.6938,-24.0,3.0,14.0,3.0,-1.0,-1.0,62.0,40.0,7.0,15.0,48.0,34.0,-91.0,-7.0,-34.0,21.0,31.0,39.0,45.0,13.0,-126.0,-81.0,-81.0,-120.0,-112.0,-14.0,-11.0,-25.0,-135.0,-63.0,-103.0,-84.0,-2.0,-37.0,-2.0,-10.0,68.0,5.0,50.0,-64.0,28.0,101.0,74.0,95.0,32.0,29.0,14.0,-18.0,17.0,14.0,24.0,50.0,23.0,-1.0,26.0,24.0,-3.0,2.0,47.0,-7.0,40.0,-19.0,-34.0,11.0,REST
1.7,-37.0,-15.0,-1.0,-6.0,-10.0,-14.0,40.0,-5.0,-34.0,-15.0,23.0,11.0,-124.0,-70.0,-70.0,-15.0,-5.0,11.0,12.0,-20.0,-146.0,-81.0,-102.0,-140.0,-130.0,-44.0,-32.0,-53.0,-166.0,-69.0,-127.0,-118.0,-40.0,-73.0,-40.0,-46.0,36.0,-24.0,70.0,-71.0,-1.0,79.0,63.0,82.0,5.0,15.0,-16.0,-46.0,-20.0,-20.0,-4.0,21.0,-4.0,-21.0,17.0,1.0,-31.0,-15.0,31.0,-19.0,30.0,-28.0,-46.0,1.0,REST
1.7063,-90.0,-52.0,-29.0,-26.0,-37.0,-39.0,44.0,16.0,-50.0,-27.0,7.0,-8.0,-139.0,-74.0,-69.0,-16.0,-7.0,7.0,10.0,-16.0,-143.0,-73.0,-106.0,-145.0,-135.0,-50.0,-25.0,-42.0,-150.0,-78.0,-132.0,-107.0,-32.0,-59.0,-22.0,-29.0,58.0,4.0,89.0,-43.0,2.0,91.0,90.0,85.0,37.0,35.0,25.0,-16.0,15.0,15.0,30.0,46.0,25.0,8.0,46.0,42.0,5.0,25.0,69.0,17.0,74.0,15.0,-11.0,45.0,REST
1.7125,-31.0,-3.0,13.0,1.0,-14.0,-11.0,70.0,76.0,3.0,18.0,40.0,20.0,-105.0,-33.0,-27.0,32.0,31.0,40.0,41.0,12.0,-120.0,-63.0,-81.0,-109.0,-119.0,-30.0,-8.0,-11.0,-111.0,-70.0,-122.0,-90.0,-15.0,-45.0,-7.0,-15.0,82.0,30.0,82.0,-28.0,56.0,82.0,102.0,86.0,57.0,24.0,30.0,-11.0,22.0,17.0,30.0,41.0,20.0,3.0,26.0,40.0,1.0,15.0,58.0,8.0,61.0,6.0,-23.0,34.0,REST
1.7188,-25.0,-20.0,-2.0,-12.0,-23.0,-8.0,55.0,40.0,-21.0,-1.0,29.0,14.0,-110.0,-36.0,-54.0,3.0,7.0,21.0,31.0,3.0,-126.0,-79.0,-93.0,-124.0,-115.0,-39.0,-22.0,-26.0,-140.0,-50.0,-122.0,-98.0,-18.0,-59.0,-15.0,-22.0,59.0,1.0,85.0,-58.0,64.0,73.0,101.0,79.0,54.0,17.0,11.0,-23.0,10.0,12.0,18.0,35.0,14.0,-7.0,13.0,34.0,-3.0,10.0,50.0,-5.0,55.0,-2.0,-36.0,29.0,REST
1.725,-7.0,-12.0,13.0,2.0,-10.0,6.0,64.0,53.0,-13.0,12.0,44.0,29.0,-93.0,-27.0,-41.0,15.0,20.0,38.0,44.0,16.0,-118.0,-56.0,-62.0,-106.0,-91.0,-14.0,1.0,-5.0,-124.0,-36.0,-103.0,-72.0,9.0,-33.0,12.0,4.0,73.0,39.0,95.0,-1.0,53.0,116.0,110.0,86.0,80.0,37.0,28.0,1.0,39.0,39.0,45.0,60.0,39.0,18.0,35.0,64.0,25.0,35.0,73.0,10.0,80.0,25.0,-21.0,50.0,REST
1.7313,3.0,-1.0,29.0,17.0,14.0,13.0,55.0,71.0,8.0,28.0,60.0,45.0,-70.0,-11.0,-25.0,30.0,36.0,49.0,51.0,23.0,-108.0,-60.0,-86.0,-109.0,-130.0,-26.0,-11.0,-24.0,-133.0,-78.0,-131.0,-86.0,-9.0,-40.0,-4.0,-10.0,48.0,15.0,69.0,-21.0,37.0,103.0,78.0,80.0,73.0,25.0,18.0,-7.0,18.0,22.0,28.0,41.0,23.0,2.0,23.0,45.0,4.0,15.0,55.0,0.0,62.0,3.0,-40.0,30.0,REST
1.7375,5.0,-16.0,11.0,0.0,-3.0,-2.0,39.0,55.0,-6.0,3.0,39.0,20.0,-99.0,-43.0,-48.0,4.0,19.0,24.0,21.0,-3.0,-145.0,-46.0,-101.0,-109.0,-110.0,-13.0,-9.0,-18.0,-121.0,-35.0,-107.0,-69.0,6.0,-27.0,8.0,2.0,68.0,24.0,125.0,-26.0,76.0,116.0,108.0,108.0,83.0,38.0,30.0,-3.0,9.0,19.0,28.0,42.0,27.0,7.0,39.0,45.0,1.0,16.0,64.0,11.0,64.0,4.0,-40.0,46.0,REST
1.7437,3.0,5.0,42.0,37.0,23.0,39.0,110.0,62.0,11.0,23.0,65.0,48.0,-72.0,10.0,-15.0,20.0,35.0,47.0,48.0,26.0,-109.0,16.0,-15.0,-45.0,-39.0,36.0,46.0,57.0,-30.0,9.0,-82.0,-46.0,43.0,12.0,52.0,46.0,127.0,101.0,147.0,20.0,97.0,111.0,142.0,109.0,89.0,58.0,43.0,6.0,15.0,22.0,33.0,48.0,33.0,17.0,51.0,37.0,-4.0,6.0,56.0,5.0,53.0,-7.0,-52.0,40.0,REST
1.75,-16.0,-12.0,27.0,28.0,10.0,21.0,93.0,33.0,-8.0,4.0,46.0,24.0,-102.0,-16.0,-32.0,0.0,8.0,23.0,24.0,-15.0,-134.0,-14.0,-37.0,-79.0,-55.0,13.0,15.0,17.0,-70.0,-19.0,-102.0,-67.0,3.0,-26.0,2.0,-2.0,84.0,53.0,104.0,-24.0,67.0,76.0,106.0,77.0,59.0,31.0,15.0,-19.0,-10.0,1.0,6.0,18.0,-6.0,-20.0,12.0,18.0,-21.0,-13.0,28.0,-22.0,39.0,-21.0,-62.0,24.0,REST
1.7563,33.0,-1.0,14.0,2.0,-21.0,-23.0,34.0,34.0,-1.0,2.0,24.0,-4.0,-124.0,-55.0,-33.0,8.0,11.0,24.0,27.0,-26.0,-150.0,-32.0,-51.0,-88.0,-59.0,22.0,8.0,6.0,-97.0,-10.0,-73.0,-46.0,16.0,-20.0,6.0,-1.0,107.0,35.0,147.0,-27.0,94.0,93.0,129.0,88.0,92.0,49.0,37.0,3.0,25.0,40.0,42.0,55.0,27.0,11.0,32.0,56.0,20.0,31.0,72.0,12.0,78.0,22.0,-20.0,58.0,REST
1.7625,41.0,38.0,49.0,30.0,3.0,8.0,71.0,76.0,37.0,36.0,55.0,29.0,-74.0,-17.0,-3.0,32.0,40.0,56.0,52.0,10.0,-129.0,-14.0,-45.0,-76.0,-53.0,33.0,15.0,16.0,-94.0,2.0,-60.0,-42.0,23.0,-16.0,16.0,8.0,121.0,33.0,150.0,-32.0,72.0,94.0,120.0,90.0,92.0,50.0,28.0,-4.0,23.0,36.0,36.0,49.0,24.0,8.0,29.0,39.0,10.0,18.0,62.0,5.0,68.0,16.0,-32.0,40.0,REST
1.7688,-6.0,-3.0,10.0,-2.0,-23.0,-18.0,72.0,51.0,-1.0,-4.0,27.0,2.0,-101.0,-41.0,-31.0,-12.0,4.0,21.0,14.0,-23.0,-157.0,-28.0,-74.0,-111.0,-86.0,-4.0,-21.0,-13.0,-118.0,-35.0,-99.0,-79.0,-16.0,-48.0,-15.0,-20.0,86.0,13.0,122.0,-61.0,64.0,75.0,95.0,87.0,77.0,34.0,20.0,-18.0,2.0,13.0,18.0,34.0,11.0,-5.0,17.0,35.0,5.0,16.0,52.0,1.0,70.0,17.0,-31.0,44.0,REST
1.775,-22.0,-30.0,-4.0,-12.0,-20.0,-12.0,64.0,7.0,-20.0,-16.0,15.0,2.0,-99.0,-21.0,-20.0,-4.0,8.0,25.0,24.0,-11.0,-149.0,-8.0,-54.0,-99.0,-74.0,10.0,-8.0,2.0,-107.0,-31.0,-93.0,-59.0,1.0,-36.0,-4.0,-11.0,73.0,18.0,140.0,-54.0,86.0,74.0,103.0,83.0,96.0,34.0,54.0,15.0,30.0,32.0,36.0,45.0,21.0,3.0,25.0,65.0,28.0,34.0,61.0,8.0,87.0,29.0,-16.0,60.0,REST
1.7812,4.0,-8.0,9.0,-12.0,-11.0,-8.0,8.0,37.0,-5.0,-12.0,15.0,-3.0,-100.0,-22.0,-7.0,5.0,7.0,19.0,14.0,-14.0,-163.0,-15.0,-68.0,-104.0,-72.0,3.0,-20.0,-11.0,-113.0,-46.0,-101.0,-71.0,-21.0,-55.0,-27.0,-33.0,64.0,2.0,155.0,-87.0,81.0,50.0,97.0,70.0,88.0,13.0,41.0,13.0,20.0,10.0,11.0,13.0,-10.0,-22.0,7.0,46.0,4.0,8.0,32.0,-18.0,68.0,4.0,-42.0,34.0,REST
1.7875,-3.0,-22.0,-16.0,-43.0,-40.0,-55.0,-32.0,26.0,-23.0,-30.0,3.0,-32.0,-140.0,-44.0,-25.0,-14.0,-14.0,-1.0,-11.0,-32.0,-177.0,-39.0,-82.0,-125.0,-74.0,-10.0,-33.0,-28.0,-125.0,-30.0,-93.0,-69.0,-25.0,-60.0,-33.0,-40.0,72.0,-14.0,166.0,-66.0,102.0,68.0,121.0,91.0,95.0,34.0,44.0,15.0,31.0,20.0,24.0,25.0,9.0,4.0,39.0,59.0,20.0,34.0,57.0,1.0,91.0,22.0,-23.0,55.0,REST
1.7938,13.0,-4.0,9.0,-19.0,-24.0,-43.0,-3.0,41.0,-2.0,3.0,27.0,-4.0,-122.0,-7.0,-1.0,22.0,16.0,35.0,23.0,-2.0,-145.0,-16.0,-46.0,-110.0,-59.0,15.0,-8.0,-5.0,-118.0,-17.0,-69.0,-42.0,4.0,-33.0,-6.0,-12.0,83.0,1.0,191.0,-37.0,127.0,79.0,139.0,95.0,117.0,48.0,61.0,33.0,48.0,40.0,41.0,40.0,21.0,7.0,30.0,71.0,33.0,40.0,60.0,-2.0,98.0,22.0,-24.0,59.0,REST
1.8,23.0,10.0,20.0,-16.0,-18.0,-19.0,14.0,66.0,15.0,6.0,32.0,4.0,-126.0,16.0,1.0,31.0,13.0,33.0,21.0,-8.0,-162.0,4.0,-63.0,-123.0,-69.0,12.0,-14.0,-17.0,-131.0,-29.0,-91.0,-62.0,-4.0,-44.0,-17.0,-21.0,58.0,5.0,191.0,-64.0,112.0,20.0,125.0,80.0,117.0,23.0,52.0,32.0,39.0,33.0,29.0,31.0,12.0,-12.0,6.0,64.0,25.0,29.0,52.0,-12.0,91.0,11.0,-36.0,48.0,REST
1.8062,27.0,16.0,22.0,-15.0,-12.0,-7.0,27.0,83.0,32.0,8.0,34.0,14.0,-123.0,20.0,7.0,41.0,16.0,37.0,33.0,6.0,-124.0,15.0,-60.0,-105.0,-45.0,34.0,6.0,0.0,-109.0,19.0,-61.0,-33.0,13.0,-30.0,5.0,-2.0,52.0,30.0,169.0,-44.0,100.0,54.0,122.0,105.0,129.0,53.0,66.0,33.0,53.0,42.0,46.0,48.0,31.0,10.0,33.0,71.0,36.0,48.0,75.0,11.0,99.0,22.0,-17.0,60.0,REST
1.8125,41.0,12.0,21.0,-9.0,-6.0,6.0,49.0,69.0,16.0,1.0,27.0,11.0,-126.0,-9.0,-7.0,25.0,10.0,26.0,27.0,-11.0,-153.0,-21.0,-59.0,-101.0,-91.0,4.0,-11.0,-2.0,-114.0,-67.0,-114.0,-76.0,-29.0,-59.0,-15.0,-20.0,29.0,4.0,121.0,-64.0,107.0,89.0,103.0,108.0,100.0,47.0,31.0,-5.0,11.0,3.0,11.0,16.0,-2.0,-18.0,20.0,31.0,-3.0,18.0,46.0,-10.0,62.0,-9.0,-39.0,29.0,REST
1.8188,-61.0,-58.0,-32.0,-50.0,-39.0,-24.0,22.0,-12.0,-44.0,-38.0,-5.0,-20.0,-160.0,-51.0,-49.0,-25.0,-18.0,-2.0,5.0,-34.0,-193.0,-48.0,-87.0,-126.0,-117.0,-25.0,-36.0,-15.0,-131.0,-83.0,-128.0,-100.0,-53.0,-75.0,-31.0,-36.0,33.0,-8.0,150.0,-55.0,103.0,68.0,103.0,101.0,102.0,41.0,21.0,6.0,12.0,13.0,18.0,31.0,13.0,-1.0,36.0,35.0,5.0,34.0,64.0,7.0,75.0,9.0,-25.0,40.0,REST
1.825,-17.0,-15.0,5.0,-22.0,-12.0,-6.0,37.0,27.0,-1.0,2.0,32.0,18.0,-113.0,1.0,-14.0,19.0,29.0,44.0,49.0,19.0,-138.0,-6.0,-69.0,-116.0,-68.0,21.0,-6.0,13.0,-114.0,-20.0,-71.0,-53.0,-11.0,-37.0,4.0,-2.0,68.0,29.0,191.0,-26.0,140.0,62.0,136.0,101.0,135.0,63.0,39.0,27.0,42.0,48.0,52.0,63.0,48.0,31.0,65.0,56.0,30.0,54.0,87.0,27.0,92.0,26.0,-16.0,54.0,REST
1.8313,8.0,11.0,25.0,1.0,2.0,4.0,33.0,47.0,17.0,12.0,47.0,21.0,-105.0,-6.0,-16.0,22.0,36.0,42.0,40.0,8.0,-151.0,-16.0,-89.0,-150.0,-76.0,7.0,-30.0,-25.0,-162.0,-60.0,-109.0,-77.0,-30.0,-61.0,-31.0,-37.0,17.0,-34.0,133.0,-74.0,98.0,32.0,109.0,55.0,101.0,22.0,3.0,-7.0,6.0,13.0,15.0,20.0,4.0,-21.0,7.0,14.0,-12.0,4.0,40.0,-15.0,55.0,-5.0,-53.0,18.0,REST
1.8375,-18.0,-8.0,-5.0,-30.0,-42.0,-50.0,-27.0,37.0,2.0,-15.0,11.0,-24.0,-162.0,-72.0,-51.0,-11.0,0.0,6.0,-1.0,-38.0,-201.0,-72.0,-106.0,-157.0,-109.0,-23.0,-48.0,-52.0,-171.0,-95.0,-142.0,-87.0,-48.0,-81.0,-51.0,-58.0,-5.0,-53.0,84.0,-88.0,68.0,26.0,107.0,62.0,90.0,6.0,-1.0,-15.0,-2.0,4.0,5.0,10.0,-6.0,-32.0,-14.0,10.0,-18.0,-4.0,34.0,-25.0,56.0,-7.0,-54.0,25.0,REST
1.8438,-17.0,-5.0,4.0,-22.0,-38.0,-40.0,-3.0,29.0,5.0,-11.0,12.0,-12.0,-149.0,-39.0,-36.0,1.0,4.0,21.0,17.0,-20.0,-188.0,-52.0,-79.0,-137.0,-89.0,-5.0,-23.0,-35.0,-146.0,-64.0,-111.0,-78.0,-33.0,-63.0,-28.0,-36.0,-11.0,-27.0,126.0,-69.0,97.0,44.0,137.0,91.0,108.0,21.0,15.0,-1.0,5.0,15.0,13.0,18.0,4.0,-18.0,0.0,26.0,-12.0,-2.0,34.0,-28.0,61.0,-10.0,-57.0,29.0,REST
1.85,-30.0,-20.0,-3.0,-18.0,-33.0,-22.0,23.0,17.0,-11.0,-17.0,8.0,-4.0,-139.0,-15.0,-36.0,3.0,2.0,18.0,7.0,-22.0,-201.0,-29.0,-92.0,-157.0,-98.0,-13.0,-36.0,-50.0,-155.0,-70.0,-113.0,-100.0,-48.0,-78.0,-43.0,-49.0,-35.0,-40.0,129.0,-70.0,105.0,31.0,138.0,101.0,124.0,11.0,21.0,12.0,13.0,17.0,10.0,12.0,-5.0,-21.0,-2.0,40.0,-2.0,4.0,36.0,-25.0,70.0,-2.0,-54.0,35.0,REST
1.8563,-7.0,-7.0,5.0,-7.0,-23.0,-10.0,15.0,35.0,12.0,6.0,24.0,11.0,-131.0,-10.0,-18.0,35.0,30.0,43.0,32.0,3.0,-179.0,8.0,-69.0,-124.0,-59.0,26.0,-8.0,-18.0,-120.0,-15.0,-67.0,-58.0,-5.0,-41.0,3.0,-5.0,26.0,2.0,162.0,-24.0,145.0,56.0,174.0,113.0,178.0,34.0,71.0,70.0,72.0,74.0,70.0,74.0,50.0,32.0,37.0,96.0,55.0,68.0,97.0,25.0,126.0,56.0,-7.0,86.0,REST
1.8625,80.0,62.0,70.0,48.0,36.0,52.0,78.0,101.0,79.0,59.0,76.0,62.0,-79.0,41.0,35.0,90.0,75.0,87.0,78.0,44.0,-146.0,36.0,-52.0,-102.0,-46.0,46.0,13.0,-3.0,-105.0,-24.0,-64.0,-41.0,11.0,-24.0,10.0,3.0,32.0,-1.0,144.0,-24.0,150.0,78.0,162.0,93.0,173.0,35.0,64.0,77.0,71.0,71.0,65.0,72.0,44.0,24.0,30.0,85.0,49.0,55.0,80.0,14.0,112.0,38.0,-21.0,64.0,REST
1.8687,47.0,17.0,21.0,5.0,-6.0,-26.0,-1.0,37.0,25.0,3.0,30.0,8.0,-140.0,-36.0,-15.0,31.0,27.0,38.0,30.0,-12.0,-187.0,-12.0,-102.0,-157.0,-105.0,-26.0,-42.0,-57.0,-149.0,-89.0,-152.0,-118.0,-51.0,-77.0,-53.0,-59.0,-42.0,-52.0,114.0,-72.0,130.0,46.0,145.0,87.0,128.0,13.0,38.0,42.0,38.0,40.0,38.0,50.0,23.0,7.0,23.0,67.0,34.0,42.0,71.0,11.0,102.0,25.0,-20.0,53.0,REST
1.875,-60.0,-35.0,-15.0,-19.0,-25.0,-44.0,-17.0,-10.0,-7.0,-16.0,18.0,7.0,-107.0,-31.0,-25.0,25.0,20.0,44.0,44.0,13.0,-163.0,-44.0,-89.0,-149.0,-117.0,-29.0,-39.0,-40.0,-140.0,-65.0,-140.0,-105.0,-32.0,-58.0,-26.0,-35.0,-44.0,-40.0,158.0,-63.0,142.0,46.0,157.0,86.0,138.0,39.0,59.0,53.0,61.0,70.0,73.0,89.0,64.0,48.0,59.0,80.0,58.0,69.0,108.0,34.0,118.0,45.0,4.0,64.0,REST
1.8813,-24.0,2.0,20.0,7.0,5.0,3.0,28.0,5.0,22.0,14.0,49.0,44.0,-56.0,-7.0,-13.0,45.0,27.0,65.0,63.0,30.0,-149.0,-37.0,-87.0,-163.0,-112.0,-11.0,-41.0,-42.0,-143.0,-58.0,-118.0,-93.0,-31.0,-59.0,-32.0,-37.0,-28.0,-40.0,151.0,-69.0,126.0,64.0,131.0,69.0,120.0,37.0,35.0,36.0,41.0,58.0,58.0,67.0,44.0,25.0,40.0,47.0,36.0,48.0,86.0,16.0,98.0,25.0,-7.0,43.0,REST
1.8875,-10.0,-1.0,1.0,-17.0,-19.0,-42.0,-4.0,-2.0,16.0,1.0,33.0,15.0,-119.0,-59.0,-26.0,26.0,9.0,46.0,43.0,-4.0,-174.0,-30.0,-101.0,-175.0,-107.0,-15.0,-49.0,-55.0,-140.0,-70.0,-137.0,-100.0,-42.0,-71.0,-47.0,-52.0,-41.0,-44.0,153.0,-55.0,132.0,98.0,154.0,75.0,125.0,41.0,43.0,33.0,45.0,68.0,65.0,68.0,49.0,29.0,44.0,61.0,46.0,62.0,100.0,39.0,113.0,40.0,13.0,67.0,REST
1.8938,-8.0,4.0,10.0,-7.0,-7.0,-45.0,-3.0,10.0,32.0,18.0,52.0,29.0,-111.0,-33.0,4.0,43.0,35.0,71.0,74.0,32.0,-143.0,-16.0,-72.0,-132.0,-86.0,4.0,-14.0,-22.0,-108.0,-42.0,-116.0,-80.0,-20.0,-45.0,-16.0,-23.0,-28.0,-11.0,177.0,-38.0,142.0,98.0,171.0,101.0,144.0,48.0,68.0,51.0,63.0,88.0,86.0,93.0,80.0,69.0,68.0,80.0,59.0,78.0,119.0,57.0,123.0,45.0,20.0,73.0,REST
1.9,20.0,19.0,21.0,6.0,17.0,-13.0,28.0,13.0,40.0,28.0,58.0,49.0,-82.0,-3.0,3.0,39.0,39.0,73.0,75.0,45.0,-129.0,-44.0,-75.0,-128.0,-113.0,-10.0,-21.0,-23.0,-120.0,-61.0,-136.0,-92.0,-27.0,-46.0,-20.0,-24.0,-31.0,-11.0,141.0,-56.0,115.0,95.0,147.0,90.0,143.0,62.0,50.0,48.0,52.0,73.0,70.0,82.0,62.0,51.0,54.0,69.0,46.0,65.0,103.0,39.0,113.0,34.0,3.0,55.0,REST
1.9062,15.0,18.0,22.0,7.0,22.0,8.0,60.0,18.0,45.0,33.0,60.0,56.0,-67.0,11.0,8.0,46.0,38.0,74.0,69.0,35.0,-168.0,-24.0,-59.0,-134.0,-98.0,5.0,-5.0,-22.0,-132.0,-40.0,-122.0,-72.0,-5.0,-29.0,-2.0,-5.0,-28.0,-6.0,187.0,-40.0,127.0,136.0,168.0,92.0,157.0,88.0,51.0,56.0,65.0,86.0,80.0,93.0,67.0,54.0,67.0,83.0,58.0,79.0,115.0,45.0,120.0,50.0,9.0,69.0,REST
1.9125,8.0,24.0,36.0,12.0,24.0,6.0,33.0,25.0,54.0,39.0,71.0,52.0,-77.0,3.0,14.0,53.0,34.0,78.0,68.0,29.0,-174.0,-11.0,-62.0,-143.0,-101.0,-7.0,-13.0,-34.0,-134.0,-59.0,-140.0,-83.0,-18.0,-46.0,-20.0,-25.0,-39.0,-2.0,194.0,-22.0,135.0,122.0,158.0,105.0,128.0,66.0,24.0,35.0,42.0,62.0,58.0,70.0,44.0,36.0,42.0,59.0,34.0,56.0,88.0,17.0,89.0,23.0,-18.0,45.0,REST
